%OpenBCI Raw EEG Data
%Number of channels = 8
%Sample Rate = 250.0 Hz
%First Column = SampleIndex
%Last Column = Timestamp 
%Other Columns = EEG data in microvolts followed by Accel Data (in G) interleaved with Aux Data
0, 0.00, 0.00, 0.00, 0.00, 0.00, 0.00, 0.00, 0.00, 0.128, -0.026, 0.976, 15:18:14.809, 1541665094809
1, 172523.91, 172481.86, 172680.83, 172550.81, 172685.97, -187500.02, -187500.02, -135663.23, 0.000, 0.000, 0.000, 15:18:15.296, 1541665095296
2, 172450.47, 172408.36, 172607.31, 172477.31, 172612.44, -187500.02, -187500.02, -136309.25, 0.000, 0.000, 0.000, 15:18:15.297, 1541665095297
3, 172429.13, 172387.06, 172585.92, 172456.06, 172591.16, -187500.02, -187500.02, -136816.25, 0.000, 0.000, 0.000, 15:18:15.297, 1541665095297
4, 172468.69, 172426.56, 172625.42, 172495.48, 172630.70, -187500.02, -187500.02, -137194.63, 0.000, 0.000, 0.000, 15:18:15.297, 1541665095297
5, 172494.64, 172452.48, 172651.42, 172521.42, 172656.56, -187500.02, -187500.02, -137630.55, 0.000, 0.000, 0.000, 15:18:15.297, 1541665095297
6, 172453.53, 172411.34, 172610.16, 172480.30, 172615.31, -187500.02, -187500.02, -138228.38, 0.000, 0.000, 0.000, 15:18:15.297, 1541665095297
7, 172379.84, 172337.70, 172536.47, 172406.69, 172541.61, -187500.02, -187500.02, -138874.56, 0.000, 0.000, 0.000, 15:18:15.297, 1541665095297
8, 172358.44, 172316.28, 172515.09, 172385.20, 172520.14, -187500.02, -187500.02, -139381.98, 0.130, -0.024, 0.984, 15:18:15.297, 1541665095297
9, 172398.59, 172356.31, 172555.14, 172425.33, 172560.31, -187500.02, -187500.02, -139756.67, 0.000, 0.000, 0.000, 15:18:15.297, 1541665095297
10, 172426.67, 172384.42, 172583.25, 172453.36, 172588.45, -187500.02, -187500.02, -140185.23, 0.000, 0.000, 0.000, 15:18:15.297, 1541665095297
11, 172385.66, 172343.44, 172542.23, 172412.34, 172547.44, -187500.02, -187500.02, -140778.13, 0.000, 0.000, 0.000, 15:18:15.297, 1541665095297
12, 172310.89, 172268.69, 172467.42, 172337.59, 172472.67, -187500.02, -187500.02, -141425.97, 0.000, 0.000, 0.000, 15:18:15.298, 1541665095298
13, 172286.03, 172243.83, 172442.55, 172312.72, 172447.81, -187500.02, -187500.02, -141938.53, 0.000, 0.000, 0.000, 15:18:15.298, 1541665095298
14, 172324.86, 172282.64, 172481.48, 172351.64, 172486.69, -187500.02, -187500.02, -142316.17, 0.000, 0.000, 0.000, 15:18:15.298, 1541665095298
15, 172353.61, 172311.45, 172510.27, 172380.42, 172515.47, -187500.02, -187500.02, -142743.47, 0.000, 0.000, 0.000, 15:18:15.298, 1541665095298
16, 172313.38, 172271.19, 172469.97, 172340.23, 172475.22, -187500.02, -187500.02, -143332.81, 0.000, 0.000, 0.000, 15:18:15.298, 1541665095298
17, 172240.02, 172197.75, 172396.45, 172266.77, 172401.77, -187500.02, -187500.02, -143975.69, 0.128, -0.028, 0.982, 15:18:15.298, 1541665095298
18, 172214.86, 172172.59, 172371.27, 172241.52, 172376.56, -187500.02, -187500.02, -144485.66, 0.000, 0.000, 0.000, 15:18:15.298, 1541665095298
19, 172253.48, 172211.28, 172410.02, 172280.27, 172415.22, -187500.02, -187500.02, -144864.64, 0.000, 0.000, 0.000, 15:18:15.298, 1541665095298
20, 172282.64, 172240.48, 172439.25, 172309.45, 172444.44, -187500.02, -187500.02, -145289.48, 0.000, 0.000, 0.000, 15:18:15.298, 1541665095298
21, 172244.09, 172201.95, 172400.75, 172270.97, 172405.95, -187500.02, -187500.02, -145876.31, 0.000, 0.000, 0.000, 15:18:15.298, 1541665095298
22, 172170.86, 172128.67, 172327.36, 172197.63, 172332.69, -187500.02, -187500.02, -146523.61, 0.000, 0.000, 0.000, 15:18:15.298, 1541665095298
23, 172148.02, 172105.81, 172304.52, 172174.77, 172309.77, -187500.02, -187500.02, -147039.25, 0.000, 0.000, 0.000, 15:18:15.298, 1541665095298
24, 172186.20, 172143.98, 172342.72, 172212.97, 172347.88, -187500.02, -187500.02, -147417.75, 0.000, 0.000, 0.000, 15:18:15.298, 1541665095298
25, 172214.66, 172172.48, 172371.28, 172241.47, 172376.38, -187500.02, -187500.02, -147837.52, 0.000, 0.000, 0.000, 15:18:15.298, 1541665095298
26, 172179.59, 172137.44, 172336.17, 172206.38, 172341.36, -187500.02, -187500.02, -148420.66, 0.000, 0.000, 0.000, 15:18:15.298, 1541665095298
27, 172109.36, 172067.09, 172265.77, 172135.97, 172271.02, -187500.02, -187500.02, -149067.67, 0.126, -0.024, 0.980, 15:18:15.299, 1541665095299
28, 172080.39, 172038.20, 172236.86, 172107.11, 172242.06, -187500.02, -187500.02, -149584.63, 0.000, 0.000, 0.000, 15:18:15.299, 1541665095299
29, 172114.06, 172071.84, 172270.56, 172140.77, 172275.73, -187500.02, -187500.02, -149966.31, 0.000, 0.000, 0.000, 15:18:15.299, 1541665095299
30, 172145.00, 172102.70, 172301.41, 172171.64, 172306.66, -187500.02, -187500.02, -150384.31, 0.000, 0.000, 0.000, 15:18:15.299, 1541665095299
31, 172107.47, 172065.27, 172263.95, 172134.22, 172269.16, -187500.02, -187500.02, -150962.45, 0.000, 0.000, 0.000, 15:18:15.299, 1541665095299
32, 172033.61, 171991.44, 172190.08, 172060.28, 172195.17, -187500.02, -187500.02, -151607.42, 0.000, 0.000, 0.000, 15:18:15.299, 1541665095299
33, 172007.64, 171965.47, 172164.17, 172034.36, 172169.27, -187500.02, -187500.02, -152126.53, 0.000, 0.000, 0.000, 15:18:15.299, 1541665095299
34, 172043.92, 172001.78, 172200.45, 172070.63, 172205.59, -187500.02, -187500.02, -152505.88, 0.000, 0.000, 0.000, 15:18:15.299, 1541665095299
35, 172074.91, 172032.77, 172231.50, 172101.61, 172236.64, -187500.02, -187500.02, -152919.56, 0.000, 0.000, 0.000, 15:18:15.299, 1541665095299
36, 172038.67, 171996.53, 172195.13, 172065.38, 172200.34, -187500.02, -187500.02, -153497.61, 0.000, 0.000, 0.000, 15:18:15.299, 1541665095299
37, 171964.06, 171921.81, 172120.45, 171990.77, 172125.66, -187500.02, -187500.02, -154146.23, 0.128, -0.028, 0.982, 15:18:15.299, 1541665095299
38, 171934.55, 171892.27, 172090.86, 171961.17, 172096.02, -187500.02, -187500.02, -154667.63, 0.000, 0.000, 0.000, 15:18:15.299, 1541665095299
39, 171969.36, 171927.22, 172125.72, 171995.95, 172130.89, -187500.02, -187500.02, -155046.36, 0.000, 0.000, 0.000, 15:18:15.299, 1541665095299
40, 172004.02, 171961.91, 172160.47, 172030.69, 172165.67, -187500.02, -187500.02, -155456.31, 0.000, 0.000, 0.000, 15:18:15.299, 1541665095299
41, 171970.88, 171928.70, 172127.30, 171997.50, 172132.48, -187500.02, -187500.02, -156026.61, 0.000, 0.000, 0.000, 15:18:15.299, 1541665095299
42, 171898.08, 171855.88, 172054.48, 171924.73, 172059.61, -187500.02, -187500.02, -156673.77, 0.000, 0.000, 0.000, 15:18:15.299, 1541665095299
43, 171866.11, 171823.95, 172022.48, 171892.80, 172027.61, -187500.02, -187500.02, -157198.73, 0.000, 0.000, 0.000, 15:18:15.299, 1541665095299
44, 171902.09, 171859.94, 172058.50, 171928.72, 172063.64, -187500.02, -187500.02, -157580.03, 0.000, 0.000, 0.000, 15:18:15.300, 1541665095300
45, 171937.34, 171895.23, 172093.63, 171963.94, 172098.97, -187500.02, -187500.02, -157990.66, 0.000, 0.000, 0.000, 15:18:15.300, 1541665095300
46, 171904.09, 171862.00, 172060.39, 171930.70, 172065.64, -187500.02, -187500.02, -158561.28, 0.000, 0.000, 0.000, 15:18:15.300, 1541665095300
47, 171828.84, 171786.81, 171985.16, 171855.56, 171990.44, -187500.02, -187500.02, -159207.05, 0.128, -0.030, 0.984, 15:18:15.300, 1541665095300
48, 171794.56, 171752.50, 171950.78, 171821.30, 171956.08, -187500.02, -187500.02, -159734.36, 0.000, 0.000, 0.000, 15:18:15.300, 1541665095300
49, 171829.72, 171787.52, 171985.92, 171856.41, 171991.17, -187500.02, -187500.02, -160116.53, 0.000, 0.000, 0.000, 15:18:15.300, 1541665095300
50, 171865.66, 171823.39, 172021.97, 171892.31, 172027.16, -187500.02, -187500.02, -160521.70, 0.000, 0.000, 0.000, 15:18:15.300, 1541665095300
51, 171833.83, 171791.67, 171990.16, 171860.55, 171995.39, -187500.02, -187500.02, -161088.86, 0.000, 0.000, 0.000, 15:18:15.300, 1541665095300
52, 171758.67, 171716.56, 171915.00, 171785.42, 171920.14, -187500.02, -187500.02, -161735.45, 0.000, 0.000, 0.000, 15:18:15.300, 1541665095300
53, 171724.95, 171682.80, 171881.22, 171751.63, 171886.34, -187500.02, -187500.02, -162265.14, 0.000, 0.000, 0.000, 15:18:15.300, 1541665095300
54, 171760.14, 171717.92, 171916.33, 171786.72, 171921.55, -187500.02, -187500.02, -162646.58, 0.000, 0.000, 0.000, 15:18:15.300, 1541665095300
55, 171797.16, 171754.89, 171953.38, 171823.64, 171958.58, -187500.02, -187500.02, -163047.92, 0.000, 0.000, 0.000, 15:18:15.300, 1541665095300
56, 171765.59, 171723.48, 171921.88, 171792.27, 171927.11, -187500.02, -187500.02, -163608.58, 0.000, 0.000, 0.000, 15:18:15.300, 1541665095300
57, 171691.48, 171649.28, 171847.67, 171718.08, 171852.97, -187500.02, -187500.02, -164251.52, 0.126, -0.028, 0.980, 15:18:15.300, 1541665095300
58, 171658.23, 171616.08, 171814.50, 171684.86, 171819.73, -187500.02, -187500.02, -164782.28, 0.000, 0.000, 0.000, 15:18:15.300, 1541665095300
59, 171689.47, 171647.41, 171845.75, 171716.11, 171851.00, -187500.02, -187500.02, -165165.28, 0.000, 0.000, 0.000, 15:18:15.300, 1541665095300
60, 171725.52, 171683.39, 171881.80, 171752.16, 171886.94, -187500.02, -187500.02, -165565.05, 0.000, 0.000, 0.000, 15:18:15.301, 1541665095301
61, 171695.25, 171653.09, 171851.45, 171721.88, 171856.66, -187500.02, -187500.02, -166125.25, 0.000, 0.000, 0.000, 15:18:15.301, 1541665095301
62, 171620.22, 171578.11, 171776.34, 171646.81, 171781.58, -187500.02, -187500.02, -166768.77, 0.000, 0.000, 0.000, 15:18:15.301, 1541665095301
63, 171585.97, 171543.95, 171742.14, 171612.80, 171747.33, -187500.02, -187500.02, -167299.81, 0.000, 0.000, 0.000, 15:18:15.301, 1541665095301
64, 171619.44, 171577.38, 171775.66, 171646.14, 171780.84, -187500.02, -187500.02, -167684.14, 0.000, 0.000, 0.000, 15:18:15.301, 1541665095301
65, 171656.83, 171614.75, 171813.00, 171683.41, 171818.28, -187500.02, -187500.02, -168080.06, 0.000, 0.000, 0.000, 15:18:15.301, 1541665095301
66, 171628.38, 171586.30, 171784.45, 171654.89, 171789.78, -187500.02, -187500.02, -168632.80, 0.000, 0.000, 0.000, 15:18:15.301, 1541665095301
67, 171555.00, 171512.95, 171711.14, 171581.55, 171716.33, -187500.02, -187500.02, -169273.23, 0.124, -0.030, 0.974, 15:18:15.301, 1541665095301
68, 171517.64, 171475.56, 171673.70, 171544.17, 171678.94, -187500.02, -187500.02, -169807.67, 0.000, 0.000, 0.000, 15:18:15.301, 1541665095301
69, 171547.80, 171505.69, 171703.81, 171574.39, 171709.17, -187500.02, -187500.02, -170193.38, 0.000, 0.000, 0.000, 15:18:15.301, 1541665095301
70, 171585.63, 171543.53, 171741.67, 171612.27, 171746.95, -187500.02, -187500.02, -170585.78, 0.000, 0.000, 0.000, 15:18:15.301, 1541665095301
71, 171557.56, 171515.39, 171713.58, 171584.05, 171718.81, -187500.02, -187500.02, -171133.13, 0.000, 0.000, 0.000, 15:18:15.302, 1541665095302
72, 171484.39, 171442.23, 171640.45, 171510.94, 171645.61, -187500.02, -187500.02, -171772.53, 0.000, 0.000, 0.000, 15:18:15.302, 1541665095302
73, 171447.11, 171404.88, 171603.02, 171473.61, 171608.19, -187500.02, -187500.02, -172306.55, 0.000, 0.000, 0.000, 15:18:15.302, 1541665095302
74, 171477.13, 171434.92, 171633.03, 171503.61, 171638.22, -187500.02, -187500.02, -172687.38, 0.000, 0.000, 0.000, 15:18:15.302, 1541665095302
75, 171515.30, 171473.14, 171671.31, 171541.77, 171676.50, -187500.02, -187500.02, -173073.50, 0.000, 0.000, 0.000, 15:18:15.302, 1541665095302
76, 171488.25, 171446.02, 171644.27, 171514.73, 171649.50, -187500.02, -187500.02, -173616.44, 0.122, -0.024, 0.976, 15:18:15.302, 1541665095302
77, 171413.25, 171371.00, 171569.09, 171439.75, 171574.39, -187500.02, -187500.02, -174253.23, 0.000, 0.000, 0.000, 15:18:15.302, 1541665095302
78, 171373.34, 171331.17, 171529.20, 171399.88, 171534.45, -187500.02, -187500.02, -174787.23, 0.000, 0.000, 0.000, 15:18:15.303, 1541665095303
79, 171401.86, 171359.69, 171557.67, 171428.44, 171563.00, -187500.02, -187500.02, -175165.11, 0.000, 0.000, 0.000, 15:18:15.303, 1541665095303
80, 171442.97, 171400.72, 171598.77, 171469.48, 171604.22, -187500.02, -187500.02, -175543.16, 0.000, 0.000, 0.000, 15:18:15.304, 1541665095304
81, 171420.73, 171378.48, 171576.59, 171447.23, 171582.02, -187500.02, -187500.02, -176075.77, 0.000, 0.000, 0.000, 15:18:15.304, 1541665095304
82, 171346.44, 171304.23, 171502.30, 171373.05, 171507.64, -187500.02, -187500.02, -176704.97, 0.000, 0.000, 0.000, 15:18:15.304, 1541665095304
83, 171302.78, 171260.58, 171458.45, 171329.31, 171463.88, -187500.02, -187500.02, -177241.59, 0.000, 0.000, 0.000, 15:18:15.304, 1541665095304
84, 171331.56, 171289.30, 171487.27, 171358.06, 171492.70, -187500.02, -187500.02, -177546.73, 0.000, 0.000, 0.000, 15:18:15.304, 1541665095304
85, 171371.00, 171328.78, 171526.86, 171397.59, 171532.16, -187500.02, -187500.02, -177668.11, 0.000, 0.000, 0.000, 15:18:15.304, 1541665095304
86, 171348.09, 171305.95, 171504.02, 171374.70, 171509.31, -187500.02, -187500.02, -177913.59, 0.130, -0.022, 0.976, 15:18:15.305, 1541665095305
87, 171270.81, 171228.69, 171426.83, 171297.48, 171432.02, -187500.02, -187500.02, -178260.23, 0.000, 0.000, 0.000, 15:18:15.305, 1541665095305
88, 171224.86, 171182.64, 171380.78, 171251.48, 171385.97, -187500.02, -187500.02, -178510.97, 0.000, 0.000, 0.000, 15:18:15.305, 1541665095305
89, 171248.58, 171206.42, 171404.55, 171275.22, 171409.70, -187500.02, -187500.02, -178605.78, 0.000, 0.000, 0.000, 15:18:15.305, 1541665095305
90, 171285.91, 171243.69, 171441.86, 171312.55, 171446.97, -187500.02, -187500.02, -178695.59, 0.000, 0.000, 0.000, 15:18:15.305, 1541665095305
91, 171261.98, 171219.92, 171418.03, 171288.72, 171423.13, -187500.02, -187500.02, -178939.23, 0.000, 0.000, 0.000, 15:18:15.305, 1541665095305
92, 171184.45, 171142.36, 171340.38, 171211.09, 171345.45, -187500.02, -187500.02, -179286.94, 0.000, 0.000, 0.000, 15:18:15.305, 1541665095305
93, 171140.33, 171098.08, 171296.08, 171166.88, 171301.38, -187500.02, -187500.02, -179544.03, 0.000, 0.000, 0.000, 15:18:15.305, 1541665095305
94, 171163.44, 171121.23, 171319.25, 171190.06, 171324.42, -187500.02, -187500.02, -179643.02, 0.000, 0.000, 0.000, 15:18:15.305, 1541665095305
95, 171199.92, 171157.78, 171355.69, 171226.53, 171360.84, -187500.02, -187500.02, -179731.59, 0.000, 0.000, 0.000, 15:18:15.306, 1541665095306
96, 171178.50, 171136.42, 171334.47, 171205.22, 171339.44, -187500.02, -187500.02, -179973.31, 0.126, -0.026, 0.972, 15:18:15.306, 1541665095306
97, 171103.45, 171061.30, 171259.47, 171130.11, 171264.31, -187500.02, -187500.02, -180319.31, 0.000, 0.000, 0.000, 15:18:15.306, 1541665095306
98, 171055.50, 171013.39, 171211.45, 171082.17, 171216.44, -187500.02, -187500.02, -180578.13, 0.000, 0.000, 0.000, 15:18:15.306, 1541665095306
99, 171078.59, 171036.45, 171234.55, 171105.23, 171239.56, -187500.02, -187500.02, -180680.00, 0.000, 0.000, 0.000, 15:18:15.306, 1541665095306
100, 171117.86, 171075.64, 171273.77, 171144.42, 171278.81, -187500.02, -187500.02, -180768.59, 0.000, 0.000, 0.000, 15:18:15.306, 1541665095306
101, 171095.28, 171053.14, 171251.14, 171121.91, 171256.28, -187500.02, -187500.02, -181009.11, 0.000, 0.000, 0.000, 15:18:15.306, 1541665095306
102, 171021.14, 170979.08, 171176.98, 171047.81, 171182.06, -187500.02, -187500.02, -181358.14, 0.000, 0.000, 0.000, 15:18:15.306, 1541665095306
103, 170972.02, 170929.91, 171127.86, 170998.69, 171132.91, -187500.02, -187500.02, -181622.20, 0.000, 0.000, 0.000, 15:18:15.306, 1541665095306
104, 170992.00, 170949.89, 171147.84, 171018.69, 171152.91, -187500.02, -187500.02, -181727.50, 0.000, 0.000, 0.000, 15:18:15.306, 1541665095306
105, 171031.34, 170989.19, 171187.22, 171057.98, 171192.20, -187500.02, -187500.02, -181813.83, 0.000, 0.000, 0.000, 15:18:15.307, 1541665095307
106, 171012.61, 170970.36, 171168.53, 171039.30, 171173.50, -187500.02, -187500.02, -182050.59, 0.130, -0.026, 0.972, 15:18:15.307, 1541665095307
107, 170937.86, 170895.64, 171093.67, 170964.47, 171098.55, -187500.02, -187500.02, -182399.38, 0.000, 0.000, 0.000, 15:18:15.307, 1541665095307
108, 170889.31, 170847.03, 171045.00, 170915.95, 171049.98, -187500.02, -187500.02, -182666.88, 0.000, 0.000, 0.000, 15:18:15.307, 1541665095307
109, 170910.23, 170867.97, 171066.02, 170936.88, 171070.92, -187500.02, -187500.02, -182776.98, 0.000, 0.000, 0.000, 15:18:15.307, 1541665095307
110, 170948.77, 170906.59, 171104.61, 170975.42, 171109.50, -187500.02, -187500.02, -182863.50, 0.000, 0.000, 0.000, 15:18:15.307, 1541665095307
111, 170929.94, 170887.84, 171085.75, 170956.66, 171090.66, -187500.02, -187500.02, -183098.78, 0.000, 0.000, 0.000, 15:18:15.307, 1541665095307
112, 170856.39, 170814.28, 171012.16, 170883.22, 171017.11, -187500.02, -187500.02, -183453.08, 0.000, 0.000, 0.000, 15:18:15.307, 1541665095307
113, 170806.14, 170764.02, 170961.88, 170832.97, 170966.91, -187500.02, -187500.02, -183733.33, 0.000, 0.000, 0.000, 15:18:15.307, 1541665095307
114, 170824.59, 170782.45, 170980.31, 170851.31, 170985.34, -187500.02, -187500.02, -183850.56, 0.000, 0.000, 0.000, 15:18:15.307, 1541665095307
115, 170862.61, 170820.50, 171018.44, 170889.36, 171023.52, -187500.02, -187500.02, -183937.69, 0.000, 0.000, 0.000, 15:18:15.308, 1541665095308
116, 170843.25, 170801.03, 170999.09, 170869.98, 171004.08, -187500.02, -187500.02, -184183.58, 0.134, -0.028, 0.974, 15:18:15.308, 1541665095308
117, 170768.34, 170726.19, 170924.13, 170795.08, 170928.97, -187500.02, -187500.02, -184569.05, 0.000, 0.000, 0.000, 15:18:15.308, 1541665095308
118, 170717.52, 170675.41, 170873.31, 170744.34, 170878.14, -187500.02, -187500.02, -184882.50, 0.000, 0.000, 0.000, 15:18:15.308, 1541665095308
119, 170735.38, 170693.25, 170891.22, 170762.19, 170896.02, -187500.02, -187500.02, -185018.39, 0.000, 0.000, 0.000, 15:18:15.308, 1541665095308
120, 170774.78, 170732.63, 170930.63, 170801.55, 170935.39, -187500.02, -187500.02, -185100.25, 0.000, 0.000, 0.000, 15:18:15.308, 1541665095308
121, 170760.66, 170718.48, 170916.61, 170787.58, 170921.34, -187500.02, -187500.02, -185271.70, 0.000, 0.000, 0.000, 15:18:15.774, 1541665095774
122, 170688.78, 170646.58, 170844.84, 170715.84, 170849.44, -187500.02, -187500.02, -185353.56, 0.000, 0.000, 0.000, 15:18:15.774, 1541665095774
123, 170635.48, 170593.38, 170791.58, 170662.56, 170796.20, -187500.02, -187500.02, -185335.08, 0.000, 0.000, 0.000, 15:18:15.774, 1541665095774
124, 170651.36, 170609.14, 170807.36, 170678.39, 170812.06, -187500.02, -187500.02, -185361.31, 0.000, 0.000, 0.000, 15:18:15.774, 1541665095774
125, 170688.78, 170646.47, 170844.81, 170715.84, 170849.39, -187500.02, -187500.02, -185406.17, 0.000, 0.000, 0.000, 15:18:15.774, 1541665095774
126, 170673.63, 170631.41, 170829.59, 170700.73, 170834.28, -187500.02, -187500.02, -185410.80, 0.128, -0.028, 0.976, 15:18:15.774, 1541665095774
127, 170600.80, 170558.53, 170756.61, 170627.75, 170761.23, -187500.02, -187500.02, -185367.64, 0.000, 0.000, 0.000, 15:18:15.774, 1541665095774
128, 170543.77, 170501.52, 170699.78, 170570.77, 170704.17, -187500.02, -187500.02, -185334.31, 0.000, 0.000, 0.000, 15:18:15.774, 1541665095774
129, 170559.36, 170517.16, 170715.44, 170586.39, 170719.78, -187500.02, -187500.02, -185359.91, 0.000, 0.000, 0.000, 15:18:15.774, 1541665095774
130, 170601.34, 170559.03, 170757.27, 170628.31, 170761.69, -187500.02, -187500.02, -185408.94, 0.000, 0.000, 0.000, 15:18:15.774, 1541665095774
131, 170589.64, 170547.33, 170745.63, 170616.73, 170750.02, -187500.02, -187500.02, -185416.23, 0.000, 0.000, 0.000, 15:18:15.774, 1541665095774
132, 170516.80, 170474.53, 170672.80, 170543.94, 170677.17, -187500.02, -187500.02, -185372.28, 0.000, 0.000, 0.000, 15:18:15.775, 1541665095775
133, 170458.36, 170416.06, 170614.23, 170485.38, 170618.70, -187500.02, -187500.02, -185337.17, 0.000, 0.000, 0.000, 15:18:15.775, 1541665095775
134, 170473.17, 170430.97, 170629.17, 170500.27, 170633.55, -187500.02, -187500.02, -185362.23, 0.000, 0.000, 0.000, 15:18:15.775, 1541665095775
135, 170513.78, 170471.58, 170669.78, 170540.77, 170674.11, -187500.02, -187500.02, -185409.80, 0.132, -0.030, 0.978, 15:18:15.775, 1541665095775
136, 170501.73, 170459.52, 170657.78, 170528.72, 170662.11, -187500.02, -187500.02, -185416.19, 0.000, 0.000, 0.000, 15:18:15.775, 1541665095775
137, 170429.16, 170386.88, 170585.05, 170456.20, 170589.47, -187500.02, -187500.02, -185371.97, 0.000, 0.000, 0.000, 15:18:15.775, 1541665095775
138, 170371.42, 170329.20, 170527.39, 170398.50, 170531.75, -187500.02, -187500.02, -185337.69, 0.000, 0.000, 0.000, 15:18:15.775, 1541665095775
139, 170385.38, 170343.16, 170541.41, 170412.52, 170545.75, -187500.02, -187500.02, -185361.92, 0.000, 0.000, 0.000, 15:18:15.775, 1541665095775
140, 170426.14, 170383.97, 170582.23, 170453.25, 170586.50, -187500.02, -187500.02, -185409.70, 0.000, 0.000, 0.000, 15:18:15.775, 1541665095775
141, 170416.48, 170374.17, 170572.48, 170443.52, 170576.73, -187500.02, -187500.02, -185418.11, 0.000, 0.000, 0.000, 15:18:15.775, 1541665095775
142, 170345.39, 170303.05, 170501.30, 170372.39, 170505.67, -187500.02, -187500.02, -185375.28, 0.000, 0.000, 0.000, 15:18:15.776, 1541665095776
143, 170288.17, 170245.88, 170444.05, 170315.28, 170448.47, -187500.02, -187500.02, -185341.70, 0.000, 0.000, 0.000, 15:18:15.776, 1541665095776
144, 170302.03, 170259.78, 170458.00, 170329.20, 170462.28, -187500.02, -187500.02, -185366.05, 0.000, 0.000, 0.000, 15:18:15.776, 1541665095776
145, 170344.56, 170302.39, 170500.63, 170371.73, 170504.98, -187500.02, -187500.02, -185415.33, 0.128, -0.028, 0.978, 15:18:15.776, 1541665095776
146, 170332.64, 170290.47, 170488.69, 170359.72, 170493.02, -187500.02, -187500.02, -185421.06, 0.000, 0.000, 0.000, 15:18:15.776, 1541665095776
147, 170260.97, 170218.72, 170416.91, 170288.06, 170421.19, -187500.02, -187500.02, -185377.50, 0.000, 0.000, 0.000, 15:18:15.776, 1541665095776
148, 170199.75, 170157.44, 170355.58, 170226.80, 170359.92, -187500.02, -187500.02, -185340.02, 0.000, 0.000, 0.000, 15:18:15.776, 1541665095776
149, 170210.45, 170168.11, 170366.31, 170237.58, 170370.72, -187500.02, -187500.02, -185361.41, 0.000, 0.000, 0.000, 15:18:15.776, 1541665095776
150, 170253.77, 170211.50, 170409.77, 170280.92, 170414.03, -187500.02, -187500.02, -185411.56, 0.000, 0.000, 0.000, 15:18:15.776, 1541665095776
151, 170245.70, 170203.47, 170401.67, 170272.80, 170405.95, -187500.02, -187500.02, -185421.11, 0.000, 0.000, 0.000, 15:18:15.776, 1541665095776
152, 170175.17, 170133.00, 170331.19, 170202.30, 170335.39, -187500.02, -187500.02, -185378.59, 0.000, 0.000, 0.000, 15:18:15.776, 1541665095776
153, 170117.91, 170075.72, 170273.92, 170145.03, 170278.00, -187500.02, -187500.02, -185344.97, 0.000, 0.000, 0.000, 15:18:15.777, 1541665095777
154, 170128.89, 170086.70, 170284.88, 170156.00, 170289.06, -187500.02, -187500.02, -185366.78, 0.000, 0.000, 0.000, 15:18:15.777, 1541665095777
155, 170173.84, 170131.70, 170329.77, 170200.95, 170334.09, -187500.02, -187500.02, -185418.39, 0.132, -0.026, 0.982, 15:18:15.777, 1541665095777
156, 170165.75, 170123.61, 170321.61, 170192.88, 170325.97, -187500.02, -187500.02, -185427.52, 0.000, 0.000, 0.000, 15:18:15.777, 1541665095777
157, 170093.63, 170051.50, 170249.41, 170120.75, 170253.70, -187500.02, -187500.02, -185383.39, 0.000, 0.000, 0.000, 15:18:15.777, 1541665095777
158, 170033.69, 169991.56, 170189.58, 170060.89, 170193.69, -187500.02, -187500.02, -185347.52, 0.000, 0.000, 0.000, 15:18:15.777, 1541665095777
159, 170041.06, 169998.95, 170196.97, 170068.25, 170201.11, -187500.02, -187500.02, -185365.83, 0.000, 0.000, 0.000, 15:18:15.777, 1541665095777
160, 170081.19, 170038.92, 170237.16, 170108.34, 170241.27, -187500.02, -187500.02, -185412.45, 0.000, 0.000, 0.000, 15:18:15.777, 1541665095777
161, 170072.97, 170030.81, 170229.05, 170100.14, 170233.19, -187500.02, -187500.02, -185421.14, 0.000, 0.000, 0.000, 15:18:15.777, 1541665095777
162, 170004.17, 169961.94, 170160.09, 170031.28, 170164.23, -187500.02, -187500.02, -185380.13, 0.000, 0.000, 0.000, 15:18:15.777, 1541665095777
163, 169943.19, 169901.03, 170099.16, 169970.39, 170103.20, -187500.02, -187500.02, -185343.44, 0.000, 0.000, 0.000, 15:18:15.778, 1541665095778
164, 169950.56, 169908.48, 170106.47, 169977.77, 170110.66, -187500.02, -187500.02, -185362.08, 0.000, 0.000, 0.000, 15:18:15.778, 1541665095778
165, 169992.45, 169950.23, 170148.36, 170019.56, 170152.41, -187500.02, -187500.02, -185410.47, 0.126, -0.022, 0.980, 15:18:15.778, 1541665095778
166, 169988.61, 169946.41, 170144.56, 170015.92, 170148.64, -187500.02, -187500.02, -185423.34, 0.000, 0.000, 0.000, 15:18:15.778, 1541665095778
167, 169921.67, 169879.44, 170077.56, 169948.89, 170081.66, -187500.02, -187500.02, -185384.02, 0.000, 0.000, 0.000, 15:18:15.778, 1541665095778
168, 169861.67, 169819.42, 170017.55, 169888.83, 170021.53, -187500.02, -187500.02, -185348.30, 0.000, 0.000, 0.000, 15:18:15.778, 1541665095778
169, 169868.14, 169825.89, 170023.98, 169895.31, 170028.00, -187500.02, -187500.02, -185366.00, 0.000, 0.000, 0.000, 15:18:15.778, 1541665095778
170, 169912.38, 169870.19, 170068.25, 169939.55, 170072.30, -187500.02, -187500.02, -185416.67, 0.000, 0.000, 0.000, 15:18:15.778, 1541665095778
171, 169908.59, 169866.41, 170064.47, 169935.80, 170068.52, -187500.02, -187500.02, -185429.39, 0.000, 0.000, 0.000, 15:18:15.778, 1541665095778
172, 169837.36, 169795.06, 169993.17, 169864.56, 169997.27, -187500.02, -187500.02, -185385.63, 0.000, 0.000, 0.000, 15:18:15.778, 1541665095778
173, 169772.16, 169729.91, 169927.97, 169799.33, 169931.98, -187500.02, -187500.02, -185345.06, 0.000, 0.000, 0.000, 15:18:15.778, 1541665095778
174, 169777.45, 169735.14, 169933.16, 169804.59, 169937.38, -187500.02, -187500.02, -185361.92, 0.000, 0.000, 0.000, 15:18:15.779, 1541665095779
175, 169819.36, 169777.05, 169975.16, 169846.52, 169979.27, -187500.02, -187500.02, -185410.19, 0.132, -0.020, 0.980, 15:18:15.779, 1541665095779
176, 169819.23, 169777.00, 169975.13, 169846.42, 169979.16, -187500.02, -187500.02, -185426.33, 0.000, 0.000, 0.000, 15:18:15.779, 1541665095779
177, 169752.27, 169710.11, 169908.23, 169779.58, 169912.20, -187500.02, -187500.02, -185386.66, 0.000, 0.000, 0.000, 15:18:15.779, 1541665095779
178, 169687.11, 169644.92, 169842.98, 169714.36, 169846.94, -187500.02, -187500.02, -185346.22, 0.000, 0.000, 0.000, 15:18:15.779, 1541665095779
179, 169691.20, 169649.02, 169847.09, 169718.53, 169851.09, -187500.02, -187500.02, -185362.14, 0.000, 0.000, 0.000, 15:18:15.779, 1541665095779
180, 169735.13, 169692.88, 169891.02, 169762.45, 169895.00, -187500.02, -187500.02, -185412.39, 0.000, 0.000, 0.000, 15:18:15.779, 1541665095779
181, 169734.66, 169692.30, 169890.48, 169761.89, 169894.53, -187500.02, -187500.02, -185427.88, 0.000, 0.000, 0.000, 15:18:15.779, 1541665095779
182, 169669.27, 169626.91, 169825.03, 169696.53, 169829.00, -187500.02, -187500.02, -185389.86, 0.000, 0.000, 0.000, 15:18:15.779, 1541665095779
183, 169605.28, 169562.98, 169761.00, 169632.50, 169764.91, -187500.02, -187500.02, -185350.66, 0.000, 0.000, 0.000, 15:18:15.779, 1541665095779
184, 169606.28, 169564.08, 169762.08, 169633.55, 169765.98, -187500.02, -187500.02, -185363.69, 0.000, 0.000, 0.000, 15:18:15.780, 1541665095780
185, 169648.70, 169606.53, 169804.47, 169676.02, 169808.52, -187500.02, -187500.02, -185412.34, 0.132, -0.024, 0.974, 15:18:15.780, 1541665095780
186, 169649.98, 169607.78, 169805.81, 169677.25, 169809.81, -187500.02, -187500.02, -185429.27, 0.000, 0.000, 0.000, 15:18:15.780, 1541665095780
187, 169582.81, 169540.56, 169738.53, 169609.97, 169742.50, -187500.02, -187500.02, -185389.19, 0.000, 0.000, 0.000, 15:18:15.780, 1541665095780
188, 169516.66, 169474.45, 169672.42, 169543.81, 169676.28, -187500.02, -187500.02, -185348.02, 0.000, 0.000, 0.000, 15:18:15.780, 1541665095780
189, 169518.03, 169475.72, 169673.77, 169545.16, 169677.56, -187500.02, -187500.02, -185361.61, 0.000, 0.000, 0.000, 15:18:15.780, 1541665095780
190, 169559.91, 169517.59, 169715.69, 169587.03, 169719.53, -187500.02, -187500.02, -185409.84, 0.000, 0.000, 0.000, 15:18:15.780, 1541665095780
191, 169559.23, 169517.05, 169714.98, 169586.45, 169718.95, -187500.02, -187500.02, -185424.75, 0.000, 0.000, 0.000, 15:18:15.780, 1541665095780
192, 169495.44, 169453.27, 169651.20, 169522.67, 169655.13, -187500.02, -187500.02, -185387.86, 0.000, 0.000, 0.000, 15:18:15.780, 1541665095780
193, 169429.92, 169387.77, 169585.77, 169457.20, 169589.55, -187500.02, -187500.02, -185347.47, 0.000, 0.000, 0.000, 15:18:15.780, 1541665095780
194, 169430.70, 169388.44, 169586.44, 169457.91, 169590.30, -187500.02, -187500.02, -185360.55, 0.128, -0.020, 0.978, 15:18:15.780, 1541665095780
195, 169473.16, 169430.94, 169629.02, 169500.45, 169632.88, -187500.02, -187500.02, -185409.33, 0.000, 0.000, 0.000, 15:18:15.781, 1541665095781
196, 169474.81, 169432.56, 169630.59, 169502.14, 169634.52, -187500.02, -187500.02, -185426.22, 0.000, 0.000, 0.000, 15:18:15.781, 1541665095781
197, 169408.81, 169366.52, 169564.48, 169436.03, 169568.33, -187500.02, -187500.02, -185387.19, 0.000, 0.000, 0.000, 15:18:15.781, 1541665095781
198, 169343.05, 169300.75, 169498.70, 169370.20, 169502.44, -187500.02, -187500.02, -185346.81, 0.000, 0.000, 0.000, 15:18:15.781, 1541665095781
199, 169344.13, 169301.92, 169499.84, 169371.36, 169503.58, -187500.02, -187500.02, -185360.44, 0.000, 0.000, 0.000, 15:18:15.781, 1541665095781
200, 169385.05, 169342.88, 169540.81, 169412.31, 169544.64, -187500.02, -187500.02, -185407.52, 0.000, 0.000, 0.000, 15:18:15.781, 1541665095781
201, 169389.42, 169347.30, 169545.28, 169416.73, 169549.11, -187500.02, -187500.02, -185426.84, 0.000, 0.000, 0.000, 15:18:15.781, 1541665095781
202, 169326.44, 169284.34, 169482.31, 169353.81, 169486.09, -187500.02, -187500.02, -185390.59, 0.000, 0.000, 0.000, 15:18:15.781, 1541665095781
203, 169258.53, 169216.20, 169414.22, 169285.77, 169417.98, -187500.02, -187500.02, -185348.02, 0.000, 0.000, 0.000, 15:18:15.782, 1541665095782
204, 169256.81, 169214.48, 169412.53, 169284.08, 169416.34, -187500.02, -187500.02, -185359.20, 0.136, -0.016, 0.980, 15:18:15.782, 1541665095782
205, 169297.36, 169255.00, 169453.06, 169324.53, 169456.86, -187500.02, -187500.02, -185406.08, 0.000, 0.000, 0.000, 15:18:15.782, 1541665095782
206, 169302.14, 169259.77, 169457.86, 169329.33, 169461.63, -187500.02, -187500.02, -185425.53, 0.000, 0.000, 0.000, 15:18:15.782, 1541665095782
207, 169242.03, 169199.77, 169397.78, 169269.31, 169401.55, -187500.02, -187500.02, -185392.00, 0.000, 0.000, 0.000, 15:18:15.782, 1541665095782
208, 169174.36, 169132.09, 169330.06, 169201.69, 169333.77, -187500.02, -187500.02, -185349.95, 0.000, 0.000, 0.000, 15:18:15.782, 1541665095782
209, 169172.81, 169130.55, 169328.52, 169200.13, 169332.25, -187500.02, -187500.02, -185361.45, 0.000, 0.000, 0.000, 15:18:15.782, 1541665095782
210, 169213.94, 169171.61, 169369.58, 169241.28, 169373.38, -187500.02, -187500.02, -185408.67, 0.000, 0.000, 0.000, 15:18:15.782, 1541665095782
211, 169219.84, 169177.52, 169375.45, 169247.11, 169379.25, -187500.02, -187500.02, -185428.91, 0.000, 0.000, 0.000, 15:18:15.782, 1541665095782
212, 169157.61, 169115.44, 169313.41, 169184.91, 169316.98, -187500.02, -187500.02, -185393.23, 0.000, 0.000, 0.000, 15:18:15.782, 1541665095782
213, 169091.20, 169049.03, 169246.86, 169118.56, 169250.55, -187500.02, -187500.02, -185352.86, 0.000, 0.000, 0.000, 15:18:15.782, 1541665095782
214, 169087.39, 169045.14, 169243.05, 169114.80, 169246.78, -187500.02, -187500.02, -185362.36, 0.138, -0.022, 0.978, 15:18:15.783, 1541665095783
215, 169129.88, 169087.61, 169285.58, 169157.19, 169289.25, -187500.02, -187500.02, -185410.94, 0.000, 0.000, 0.000, 15:18:15.783, 1541665095783
216, 169136.56, 169094.16, 169292.16, 169163.77, 169295.84, -187500.02, -187500.02, -185431.67, 0.000, 0.000, 0.000, 15:18:15.783, 1541665095783
217, 169073.70, 169031.33, 169229.30, 169100.95, 169232.94, -187500.02, -187500.02, -185395.02, 0.000, 0.000, 0.000, 15:18:15.783, 1541665095783
218, 169004.34, 168962.06, 169159.92, 169031.63, 169163.56, -187500.02, -187500.02, -185351.61, 0.000, 0.000, 0.000, 15:18:15.783, 1541665095783
219, 168999.25, 168956.89, 169154.84, 169026.52, 169158.52, -187500.02, -187500.02, -185359.97, 0.000, 0.000, 0.000, 15:18:15.783, 1541665095783
220, 169040.50, 168998.16, 169196.17, 169067.83, 169199.75, -187500.02, -187500.02, -185407.41, 0.000, 0.000, 0.000, 15:18:15.783, 1541665095783
221, 169050.00, 169007.61, 169205.61, 169077.28, 169209.25, -187500.02, -187500.02, -185430.95, 0.000, 0.000, 0.000, 15:18:15.783, 1541665095783
222, 168989.86, 168947.47, 169145.34, 169017.09, 169148.97, -187500.02, -187500.02, -185396.98, 0.000, 0.000, 0.000, 15:18:15.783, 1541665095783
223, 168918.70, 168876.31, 169074.27, 168946.02, 169077.84, -187500.02, -187500.02, -185351.98, 0.000, 0.000, 0.000, 15:18:15.783, 1541665095783
224, 168910.94, 168868.67, 169066.53, 168938.34, 169070.11, -187500.02, -187500.02, -185357.95, 0.132, -0.024, 0.978, 15:18:15.785, 1541665095785
225, 168954.23, 168911.88, 169109.67, 168981.50, 169113.31, -187500.02, -187500.02, -185407.13, 0.000, 0.000, 0.000, 15:18:15.785, 1541665095785
226, 168965.03, 168922.66, 169120.47, 168992.23, 169124.14, -187500.02, -187500.02, -185431.63, 0.000, 0.000, 0.000, 15:18:15.785, 1541665095785
227, 168905.84, 168863.47, 169061.30, 168933.00, 169064.92, -187500.02, -187500.02, -185398.33, 0.000, 0.000, 0.000, 15:18:15.785, 1541665095785
228, 168835.23, 168792.77, 168990.67, 168862.42, 168994.20, -187500.02, -187500.02, -185353.94, 0.000, 0.000, 0.000, 15:18:15.785, 1541665095785
229, 168826.08, 168783.58, 168981.50, 168853.30, 168984.97, -187500.02, -187500.02, -185358.77, 0.000, 0.000, 0.000, 15:18:15.786, 1541665095786
230, 168864.23, 168821.80, 169019.73, 168891.47, 169023.23, -187500.02, -187500.02, -185403.13, 0.000, 0.000, 0.000, 15:18:15.786, 1541665095786
231, 168874.38, 168832.02, 169029.92, 168901.75, 169033.47, -187500.02, -187500.02, -185426.94, 0.000, 0.000, 0.000, 15:18:15.786, 1541665095786
232, 168819.05, 168776.63, 168974.63, 168846.48, 168978.16, -187500.02, -187500.02, -185397.47, 0.000, 0.000, 0.000, 15:18:15.786, 1541665095786
233, 168747.39, 168705.02, 168903.03, 168774.81, 168906.38, -187500.02, -187500.02, -185351.98, 0.000, 0.000, 0.000, 15:18:15.787, 1541665095787
234, 168737.97, 168695.67, 168893.59, 168765.45, 168897.11, -187500.02, -187500.02, -185356.70, 0.130, -0.020, 0.984, 15:18:15.787, 1541665095787
235, 168781.55, 168739.27, 168937.14, 168808.97, 168940.53, -187500.02, -187500.02, -185406.34, 0.000, 0.000, 0.000, 15:18:15.788, 1541665095788
236, 168794.36, 168752.16, 168950.02, 168821.77, 168953.45, -187500.02, -187500.02, -185432.56, 0.000, 0.000, 0.000, 15:18:15.789, 1541665095789
237, 168737.36, 168695.09, 168892.91, 168764.72, 168896.41, -187500.02, -187500.02, -185401.28, 0.000, 0.000, 0.000, 15:18:15.789, 1541665095789
238, 168664.22, 168621.98, 168819.72, 168691.63, 168823.25, -187500.02, -187500.02, -185354.67, 0.000, 0.000, 0.000, 15:18:15.789, 1541665095789
239, 168651.95, 168609.70, 168807.47, 168679.28, 168810.89, -187500.02, -187500.02, -185356.70, 0.000, 0.000, 0.000, 15:18:15.789, 1541665095789
240, 168692.44, 168650.20, 168848.06, 168719.81, 168851.47, -187500.02, -187500.02, -185403.36, 0.000, 0.000, 0.000, 15:18:15.789, 1541665095789
241, 168708.44, 168666.17, 168863.98, 168735.73, 168867.47, -187500.02, -187500.02, -185432.28, 0.000, 0.000, 0.000, 15:18:16.254, 1541665096254
242, 168653.45, 168611.14, 168808.91, 168680.73, 168812.42, -187500.02, -187500.02, -185402.73, 0.000, 0.000, 0.000, 15:18:16.255, 1541665096255
243, 168579.94, 168537.59, 168735.39, 168607.23, 168738.81, -187500.02, -187500.02, -185355.91, 0.000, 0.000, 0.000, 15:18:16.255, 1541665096255
244, 168568.14, 168525.75, 168723.50, 168595.47, 168726.97, -187500.02, -187500.02, -185358.70, 0.132, -0.028, 0.984, 15:18:16.255, 1541665096255
245, 168606.98, 168564.52, 168762.34, 168634.30, 168765.88, -187500.02, -187500.02, -185403.73, 0.000, 0.000, 0.000, 15:18:16.255, 1541665096255
246, 168618.97, 168576.53, 168774.34, 168646.34, 168777.91, -187500.02, -187500.02, -185428.70, 0.000, 0.000, 0.000, 15:18:16.255, 1541665096255
247, 168565.66, 168523.34, 168721.09, 168593.08, 168724.53, -187500.02, -187500.02, -185400.81, 0.000, 0.000, 0.000, 15:18:16.255, 1541665096255
248, 168492.16, 168449.92, 168647.61, 168519.55, 168651.02, -187500.02, -187500.02, -185354.00, 0.000, 0.000, 0.000, 15:18:16.255, 1541665096255
249, 168480.72, 168438.41, 168636.17, 168508.16, 168639.55, -187500.02, -187500.02, -185357.22, 0.000, 0.000, 0.000, 15:18:16.255, 1541665096255
250, 168520.80, 168478.48, 168676.31, 168548.31, 168679.61, -187500.02, -187500.02, -185403.52, 0.000, 0.000, 0.000, 15:18:16.255, 1541665096255
251, 168536.22, 168493.97, 168691.77, 168563.70, 168695.09, -187500.02, -187500.02, -185431.56, 0.000, 0.000, 0.000, 15:18:16.255, 1541665096255
252, 168481.44, 168439.09, 168636.83, 168508.86, 168640.17, -187500.02, -187500.02, -185401.83, 0.000, 0.000, 0.000, 15:18:16.255, 1541665096255
253, 168408.20, 168365.92, 168563.59, 168435.67, 168567.00, -187500.02, -187500.02, -185355.64, 0.132, -0.028, 0.984, 15:18:16.256, 1541665096256
254, 168393.16, 168350.86, 168548.48, 168420.61, 168551.89, -187500.02, -187500.02, -185355.66, 0.000, 0.000, 0.000, 15:18:16.256, 1541665096256
255, 168432.59, 168390.19, 168587.94, 168460.05, 168591.17, -187500.02, -187500.02, -185401.19, 0.000, 0.000, 0.000, 15:18:16.256, 1541665096256
0, 168449.69, 168407.38, 168605.11, 168477.11, 168608.34, -187500.02, -187500.02, -185430.69, 0.000, 0.000, 0.000, 15:18:16.256, 1541665096256
1, 168397.41, 168355.03, 168552.83, 168424.77, 168555.97, -187500.02, -187500.02, -185403.25, 0.000, 0.000, 0.000, 15:18:16.256, 1541665096256
2, 168325.55, 168283.28, 168480.94, 168352.94, 168484.22, -187500.02, -187500.02, -185358.52, 0.000, 0.000, 0.000, 15:18:16.256, 1541665096256
3, 168308.42, 168266.11, 168463.77, 168335.78, 168467.06, -187500.02, -187500.02, -185356.59, 0.000, 0.000, 0.000, 15:18:16.256, 1541665096256
4, 168345.64, 168303.36, 168501.06, 168373.19, 168504.39, -187500.02, -187500.02, -185400.06, 0.000, 0.000, 0.000, 15:18:16.256, 1541665096256
5, 168365.02, 168322.72, 168520.34, 168392.41, 168523.78, -187500.02, -187500.02, -185431.58, 0.000, 0.000, 0.000, 15:18:16.257, 1541665096257
6, 168317.92, 168275.50, 168473.14, 168345.36, 168476.61, -187500.02, -187500.02, -185409.30, 0.000, 0.000, 0.000, 15:18:16.257, 1541665096257
7, 168242.98, 168200.58, 168398.28, 168270.39, 168401.61, -187500.02, -187500.02, -185361.64, 0.132, -0.026, 0.982, 15:18:16.257, 1541665096257
8, 168225.61, 168183.33, 168380.98, 168253.00, 168384.33, -187500.02, -187500.02, -185359.80, 0.000, 0.000, 0.000, 15:18:16.258, 1541665096258
9, 168266.30, 168223.89, 168421.59, 168293.70, 168424.84, -187500.02, -187500.02, -185406.53, 0.000, 0.000, 0.000, 15:18:16.258, 1541665096258
10, 168283.78, 168241.31, 168439.00, 168311.22, 168442.30, -187500.02, -187500.02, -185435.88, 0.000, 0.000, 0.000, 15:18:16.258, 1541665096258
11, 168232.36, 168189.97, 168387.63, 168259.81, 168390.89, -187500.02, -187500.02, -185408.98, 0.000, 0.000, 0.000, 15:18:16.258, 1541665096258
12, 168156.59, 168114.22, 168311.89, 168184.00, 168315.14, -187500.02, -187500.02, -185360.53, 0.000, 0.000, 0.000, 15:18:16.258, 1541665096258
13, 168139.30, 168096.84, 168294.58, 168166.66, 168297.81, -187500.02, -187500.02, -185359.02, 0.000, 0.000, 0.000, 15:18:16.258, 1541665096258
14, 168179.77, 168137.33, 168335.08, 168207.13, 168338.33, -187500.02, -187500.02, -185405.77, 0.000, 0.000, 0.000, 15:18:16.258, 1541665096258
15, 168197.44, 168155.05, 168352.73, 168224.78, 168356.00, -187500.02, -187500.02, -185435.11, 0.000, 0.000, 0.000, 15:18:16.258, 1541665096258
16, 168147.52, 168105.20, 168302.84, 168174.94, 168306.08, -187500.02, -187500.02, -185409.70, 0.000, 0.000, 0.000, 15:18:16.258, 1541665096258
17, 168071.59, 168029.19, 168226.80, 168099.00, 168230.05, -187500.02, -187500.02, -185360.97, 0.130, -0.030, 0.982, 15:18:16.259, 1541665096259
18, 168051.41, 168009.09, 168206.69, 168078.91, 168209.95, -187500.02, -187500.02, -185356.78, 0.000, 0.000, 0.000, 15:18:16.259, 1541665096259
19, 168089.98, 168047.73, 168245.20, 168117.44, 168248.50, -187500.02, -187500.02, -185401.66, 0.000, 0.000, 0.000, 15:18:16.259, 1541665096259
20, 168111.28, 168068.91, 168266.47, 168138.63, 168269.78, -187500.02, -187500.02, -185434.41, 0.000, 0.000, 0.000, 15:18:16.259, 1541665096259
21, 168063.30, 168020.98, 168218.59, 168090.77, 168221.84, -187500.02, -187500.02, -185410.86, 0.000, 0.000, 0.000, 15:18:16.259, 1541665096259
22, 167987.80, 167945.39, 168143.00, 168015.33, 168146.16, -187500.02, -187500.02, -185362.70, 0.000, 0.000, 0.000, 15:18:16.259, 1541665096259
23, 167964.33, 167921.94, 168119.48, 167991.84, 168122.80, -187500.02, -187500.02, -185355.45, 0.000, 0.000, 0.000, 15:18:16.259, 1541665096259
24, 168000.80, 167958.56, 168156.09, 168028.41, 168159.28, -187500.02, -187500.02, -185398.44, 0.000, 0.000, 0.000, 15:18:16.259, 1541665096259
25, 168022.61, 167980.42, 168177.84, 168050.09, 168181.09, -187500.02, -187500.02, -185431.27, 0.000, 0.000, 0.000, 15:18:16.259, 1541665096259
26, 167976.23, 167933.91, 168131.45, 168003.66, 168134.59, -187500.02, -187500.02, -185408.78, 0.000, 0.000, 0.000, 15:18:16.259, 1541665096259
27, 167900.42, 167858.08, 168055.58, 167927.89, 168058.69, -187500.02, -187500.02, -185360.53, 0.132, -0.024, 0.982, 15:18:16.260, 1541665096260
28, 167877.94, 167835.53, 168033.13, 167905.36, 168036.16, -187500.02, -187500.02, -185354.47, 0.000, 0.000, 0.000, 15:18:16.260, 1541665096260
29, 167916.33, 167873.91, 168071.59, 167943.73, 168074.67, -187500.02, -187500.02, -185399.47, 0.000, 0.000, 0.000, 15:18:16.260, 1541665096260
30, 167939.31, 167896.98, 168094.66, 167966.78, 168097.77, -187500.02, -187500.02, -185433.50, 0.000, 0.000, 0.000, 15:18:16.260, 1541665096260
31, 167894.66, 167852.36, 168049.94, 167922.23, 168053.13, -187500.02, -187500.02, -185412.78, 0.000, 0.000, 0.000, 15:18:16.260, 1541665096260
32, 167820.27, 167777.91, 167975.34, 167847.73, 167978.52, -187500.02, -187500.02, -185365.84, 0.000, 0.000, 0.000, 15:18:16.260, 1541665096260
33, 167796.06, 167753.77, 167951.20, 167823.47, 167954.31, -187500.02, -187500.02, -185358.30, 0.000, 0.000, 0.000, 15:18:16.260, 1541665096260
34, 167833.50, 167791.25, 167988.64, 167860.97, 167991.75, -187500.02, -187500.02, -185402.22, 0.000, 0.000, 0.000, 15:18:16.260, 1541665096260
35, 167859.78, 167817.41, 168015.00, 167887.36, 168018.19, -187500.02, -187500.02, -185439.31, 0.000, 0.000, 0.000, 15:18:16.260, 1541665096260
36, 167815.73, 167773.33, 167970.97, 167843.28, 167974.11, -187500.02, -187500.02, -185418.98, 0.000, 0.000, 0.000, 15:18:16.260, 1541665096260
37, 167737.70, 167695.30, 167892.91, 167765.22, 167895.95, -187500.02, -187500.02, -185368.63, 0.128, -0.024, 0.980, 15:18:16.261, 1541665096261
38, 167709.00, 167666.59, 167864.14, 167736.56, 167867.39, -187500.02, -187500.02, -185356.89, 0.000, 0.000, 0.000, 15:18:16.261, 1541665096261
39, 167746.14, 167703.77, 167901.27, 167773.59, 167904.47, -187500.02, -187500.02, -185400.47, 0.000, 0.000, 0.000, 15:18:16.261, 1541665096261
40, 167770.98, 167728.52, 167926.03, 167798.36, 167929.13, -187500.02, -187500.02, -185435.78, 0.000, 0.000, 0.000, 15:18:16.261, 1541665096261
41, 167726.28, 167683.86, 167881.28, 167753.61, 167884.30, -187500.02, -187500.02, -185414.53, 0.000, 0.000, 0.000, 15:18:16.261, 1541665096261
42, 167650.59, 167608.22, 167805.67, 167677.94, 167808.64, -187500.02, -187500.02, -185366.66, 0.000, 0.000, 0.000, 15:18:16.261, 1541665096261
43, 167623.42, 167581.02, 167778.58, 167650.95, 167781.55, -187500.02, -187500.02, -185356.66, 0.000, 0.000, 0.000, 15:18:16.261, 1541665096261
44, 167658.78, 167616.48, 167813.97, 167686.42, 167817.06, -187500.02, -187500.02, -185398.75, 0.000, 0.000, 0.000, 15:18:16.261, 1541665096261
45, 167686.42, 167644.16, 167841.59, 167713.97, 167844.73, -187500.02, -187500.02, -185436.84, 0.000, 0.000, 0.000, 15:18:16.261, 1541665096261
46, 167644.36, 167601.94, 167799.41, 167671.77, 167802.52, -187500.02, -187500.02, -185417.95, 0.134, -0.020, 0.976, 15:18:16.261, 1541665096261
47, 167563.89, 167521.41, 167718.83, 167591.27, 167721.94, -187500.02, -187500.02, -185365.30, 0.000, 0.000, 0.000, 15:18:16.261, 1541665096261
48, 167532.20, 167489.84, 167687.25, 167559.69, 167690.22, -187500.02, -187500.02, -185350.92, 0.000, 0.000, 0.000, 15:18:16.261, 1541665096261
49, 167567.58, 167525.17, 167722.61, 167595.00, 167725.58, -187500.02, -187500.02, -185392.89, 0.000, 0.000, 0.000, 15:18:16.261, 1541665096261
50, 167597.08, 167554.66, 167752.09, 167624.47, 167755.17, -187500.02, -187500.02, -185432.50, 0.000, 0.000, 0.000, 15:18:16.262, 1541665096262
51, 167557.08, 167514.56, 167712.02, 167584.39, 167715.02, -187500.02, -187500.02, -185415.45, 0.000, 0.000, 0.000, 15:18:16.262, 1541665096262
52, 167479.36, 167436.83, 167634.23, 167506.69, 167637.19, -187500.02, -187500.02, -185365.67, 0.000, 0.000, 0.000, 15:18:16.262, 1541665096262
53, 167451.22, 167408.84, 167606.22, 167478.69, 167609.11, -187500.02, -187500.02, -185355.41, 0.000, 0.000, 0.000, 15:18:16.262, 1541665096262
54, 167488.80, 167446.41, 167643.80, 167516.31, 167646.70, -187500.02, -187500.02, -185399.75, 0.000, 0.000, 0.000, 15:18:16.263, 1541665096263
55, 167517.42, 167474.98, 167672.31, 167544.88, 167675.36, -187500.02, -187500.02, -185438.31, 0.000, 0.000, 0.000, 15:18:16.263, 1541665096263
56, 167477.77, 167435.42, 167632.69, 167505.22, 167635.73, -187500.02, -187500.02, -185421.48, 0.124, -0.022, 0.978, 15:18:16.264, 1541665096264
57, 167398.41, 167355.86, 167553.20, 167425.72, 167556.22, -187500.02, -187500.02, -185369.88, 0.000, 0.000, 0.000, 15:18:16.264, 1541665096264
58, 167367.36, 167324.89, 167522.16, 167394.64, 167525.06, -187500.02, -187500.02, -185356.64, 0.000, 0.000, 0.000, 15:18:16.264, 1541665096264
59, 167400.80, 167358.30, 167555.69, 167428.17, 167558.59, -187500.02, -187500.02, -185397.08, 0.000, 0.000, 0.000, 15:18:16.264, 1541665096264
60, 167428.03, 167385.56, 167582.94, 167455.44, 167585.86, -187500.02, -187500.02, -185434.20, 0.000, 0.000, 0.000, 15:18:16.264, 1541665096264
61, 167388.08, 167345.67, 167543.11, 167415.47, 167545.91, -187500.02, -187500.02, -185416.94, 0.000, 0.000, 0.000, 15:18:16.264, 1541665096264
62, 167310.05, 167267.59, 167465.02, 167337.47, 167467.83, -187500.02, -187500.02, -185366.94, 0.000, 0.000, 0.000, 15:18:16.264, 1541665096264
63, 167278.06, 167235.66, 167432.98, 167305.63, 167435.86, -187500.02, -187500.02, -185353.05, 0.000, 0.000, 0.000, 15:18:16.264, 1541665096264
64, 167311.98, 167269.63, 167466.97, 167339.56, 167469.88, -187500.02, -187500.02, -185393.94, 0.000, 0.000, 0.000, 15:18:16.264, 1541665096264
65, 167342.77, 167300.31, 167497.73, 167370.22, 167500.64, -187500.02, -187500.02, -185434.17, 0.000, 0.000, 0.000, 15:18:16.264, 1541665096264
66, 167305.58, 167263.22, 167460.53, 167333.00, 167463.42, -187500.02, -187500.02, -185419.34, 0.128, -0.024, 0.978, 15:18:16.264, 1541665096264
67, 167226.83, 167184.52, 167381.80, 167254.33, 167384.70, -187500.02, -187500.02, -185368.70, 0.000, 0.000, 0.000, 15:18:16.265, 1541665096265
68, 167194.58, 167152.17, 167349.50, 167222.06, 167352.36, -187500.02, -187500.02, -185354.81, 0.000, 0.000, 0.000, 15:18:16.265, 1541665096265
69, 167225.47, 167183.16, 167380.45, 167253.00, 167383.25, -187500.02, -187500.02, -185392.92, 0.000, 0.000, 0.000, 15:18:16.265, 1541665096265
70, 167256.75, 167214.42, 167411.78, 167284.30, 167414.53, -187500.02, -187500.02, -185433.69, 0.000, 0.000, 0.000, 15:18:16.265, 1541665096265
71, 167222.02, 167179.63, 167376.94, 167249.50, 167379.67, -187500.02, -187500.02, -185421.03, 0.000, 0.000, 0.000, 15:18:16.265, 1541665096265
72, 167142.77, 167100.31, 167297.61, 167170.23, 167300.31, -187500.02, -187500.02, -185369.81, 0.000, 0.000, 0.000, 15:18:16.265, 1541665096265
73, 167109.06, 167066.59, 167263.97, 167136.55, 167266.64, -187500.02, -187500.02, -185354.53, 0.000, 0.000, 0.000, 15:18:16.265, 1541665096265
74, 167141.59, 167099.25, 167296.66, 167169.20, 167299.41, -187500.02, -187500.02, -185394.28, 0.000, 0.000, 0.000, 15:18:16.265, 1541665096265
75, 167172.84, 167130.42, 167327.86, 167200.39, 167330.61, -187500.02, -187500.02, -185434.78, 0.000, 0.000, 0.000, 15:18:16.265, 1541665096265
76, 167134.22, 167091.83, 167289.19, 167161.72, 167291.92, -187500.02, -187500.02, -185418.13, 0.132, -0.026, 0.978, 15:18:16.265, 1541665096265
77, 167056.66, 167014.27, 167211.58, 167084.27, 167214.31, -187500.02, -187500.02, -185368.86, 0.000, 0.000, 0.000, 15:18:16.265, 1541665096265
78, 167022.31, 166980.02, 167177.25, 167049.89, 167179.94, -187500.02, -187500.02, -185353.33, 0.000, 0.000, 0.000, 15:18:16.265, 1541665096265
79, 167052.94, 167010.63, 167207.89, 167080.48, 167210.59, -187500.02, -187500.02, -185391.22, 0.000, 0.000, 0.000, 15:18:16.265, 1541665096265
80, 167082.38, 167040.02, 167237.36, 167109.97, 167240.11, -187500.02, -187500.02, -185429.64, 0.000, 0.000, 0.000, 15:18:16.265, 1541665096265
81, 167049.36, 167006.84, 167204.20, 167076.80, 167206.95, -187500.02, -187500.02, -185418.31, 0.000, 0.000, 0.000, 15:18:16.265, 1541665096265
82, 166972.95, 166930.38, 167127.83, 167000.47, 167130.56, -187500.02, -187500.02, -185369.98, 0.000, 0.000, 0.000, 15:18:16.266, 1541665096266
83, 166935.52, 166893.00, 167090.44, 166963.13, 167093.17, -187500.02, -187500.02, -185351.59, 0.000, 0.000, 0.000, 15:18:16.266, 1541665096266
84, 166966.47, 166924.05, 167121.38, 166994.02, 167124.13, -187500.02, -187500.02, -185390.03, 0.000, 0.000, 0.000, 15:18:16.266, 1541665096266
85, 166999.69, 166957.20, 167154.63, 167027.14, 167157.22, -187500.02, -187500.02, -185432.22, 0.000, 0.000, 0.000, 15:18:16.266, 1541665096266
86, 166967.77, 166925.28, 167122.73, 166995.27, 167125.34, -187500.02, -187500.02, -185421.86, 0.130, -0.024, 0.980, 15:18:16.266, 1541665096266
87, 166892.22, 166849.83, 167047.19, 166919.89, 167049.83, -187500.02, -187500.02, -185374.50, 0.000, 0.000, 0.000, 15:18:16.266, 1541665096266
88, 166852.61, 166810.22, 167007.41, 166880.16, 167010.03, -187500.02, -187500.02, -185354.05, 0.000, 0.000, 0.000, 15:18:16.266, 1541665096266
89, 166879.75, 166837.33, 167034.53, 166907.33, 167037.17, -187500.02, -187500.02, -185388.56, 0.000, 0.000, 0.000, 15:18:16.266, 1541665096266
90, 166913.86, 166871.44, 167068.64, 166941.39, 167071.42, -187500.02, -187500.02, -185431.39, 0.000, 0.000, 0.000, 15:18:16.266, 1541665096266
91, 166882.09, 166839.70, 167036.91, 166909.66, 167039.70, -187500.02, -187500.02, -185420.95, 0.000, 0.000, 0.000, 15:18:16.266, 1541665096266
92, 166804.72, 166762.36, 166959.50, 166832.31, 166962.25, -187500.02, -187500.02, -185371.81, 0.000, 0.000, 0.000, 15:18:16.267, 1541665096267
93, 166765.56, 166723.13, 166920.25, 166793.16, 166923.00, -187500.02, -187500.02, -185352.22, 0.000, 0.000, 0.000, 15:18:16.267, 1541665096267
94, 166793.73, 166751.23, 166948.44, 166821.33, 166951.16, -187500.02, -187500.02, -185388.06, 0.000, 0.000, 0.000, 15:18:16.267, 1541665096267
95, 166827.25, 166784.70, 166982.03, 166854.88, 166984.72, -187500.02, -187500.02, -185430.09, 0.000, 0.000, 0.000, 15:18:16.267, 1541665096267
96, 166794.13, 166751.61, 166948.92, 166821.75, 166951.56, -187500.02, -187500.02, -185418.08, 0.136, -0.024, 0.980, 15:18:16.267, 1541665096267
97, 166716.67, 166674.11, 166871.41, 166744.20, 166873.98, -187500.02, -187500.02, -185368.67, 0.000, 0.000, 0.000, 15:18:16.267, 1541665096267
98, 166676.70, 166634.22, 166831.50, 166704.25, 166834.02, -187500.02, -187500.02, -185348.38, 0.000, 0.000, 0.000, 15:18:16.267, 1541665096267
99, 166705.14, 166662.64, 166859.91, 166732.70, 166862.47, -187500.02, -187500.02, -185384.56, 0.000, 0.000, 0.000, 15:18:16.267, 1541665096267
100, 166739.67, 166697.11, 166894.41, 166767.16, 166896.89, -187500.02, -187500.02, -185427.41, 0.000, 0.000, 0.000, 15:18:16.267, 1541665096267
101, 166714.59, 166672.11, 166869.42, 166742.16, 166871.88, -187500.02, -187500.02, -185423.41, 0.000, 0.000, 0.000, 15:18:16.267, 1541665096267
102, 166638.86, 166596.47, 166793.67, 166666.48, 166796.20, -187500.02, -187500.02, -185376.00, 0.000, 0.000, 0.000, 15:18:16.267, 1541665096267
103, 166595.44, 166552.98, 166750.11, 166622.92, 166752.61, -187500.02, -187500.02, -185352.48, 0.000, 0.000, 0.000, 15:18:16.268, 1541665096268
104, 166622.08, 166579.70, 166776.81, 166649.70, 166779.34, -187500.02, -187500.02, -185387.02, 0.000, 0.000, 0.000, 15:18:16.268, 1541665096268
105, 166657.63, 166615.28, 166812.31, 166685.30, 166814.95, -187500.02, -187500.02, -185430.72, 0.132, -0.024, 0.982, 15:18:16.731, 1541665096731
106, 166630.42, 166588.08, 166785.16, 166658.09, 166787.80, -187500.02, -187500.02, -185424.08, 0.000, 0.000, 0.000, 15:18:16.733, 1541665096733
107, 166555.78, 166513.36, 166710.45, 166583.45, 166713.14, -187500.02, -187500.02, -185377.63, 0.000, 0.000, 0.000, 15:18:16.733, 1541665096733
108, 166510.95, 166468.44, 166665.52, 166538.58, 166668.25, -187500.02, -187500.02, -185353.05, 0.000, 0.000, 0.000, 15:18:16.733, 1541665096733
109, 166530.95, 166488.50, 166685.58, 166558.63, 166688.31, -187500.02, -187500.02, -185381.20, 0.000, 0.000, 0.000, 15:18:16.733, 1541665096733
110, 166566.28, 166523.89, 166721.08, 166594.03, 166723.58, -187500.02, -187500.02, -185424.67, 0.000, 0.000, 0.000, 15:18:16.733, 1541665096733
111, 166542.33, 166499.97, 166697.09, 166570.14, 166699.61, -187500.02, -187500.02, -185421.17, 0.000, 0.000, 0.000, 15:18:16.733, 1541665096733
112, 166466.83, 166424.42, 166621.47, 166494.55, 166623.98, -187500.02, -187500.02, -185373.72, 0.000, 0.000, 0.000, 15:18:16.733, 1541665096733
113, 166422.34, 166379.92, 166576.89, 166450.00, 166579.39, -187500.02, -187500.02, -185349.47, 0.000, 0.000, 0.000, 15:18:16.733, 1541665096733
114, 166447.98, 166405.56, 166602.59, 166475.63, 166605.16, -187500.02, -187500.02, -185383.38, 0.000, 0.000, 0.000, 15:18:16.733, 1541665096733
115, 166483.23, 166440.83, 166637.92, 166510.97, 166640.59, -187500.02, -187500.02, -185426.64, 0.128, -0.024, 0.980, 15:18:16.733, 1541665096733
116, 166460.55, 166418.13, 166615.22, 166488.38, 166617.86, -187500.02, -187500.02, -185424.08, 0.000, 0.000, 0.000, 15:18:16.733, 1541665096733
117, 166384.61, 166342.14, 166539.25, 166412.38, 166541.84, -187500.02, -187500.02, -185376.31, 0.000, 0.000, 0.000, 15:18:16.733, 1541665096733
118, 166337.11, 166294.64, 166491.75, 166364.78, 166494.27, -187500.02, -187500.02, -185349.52, 0.000, 0.000, 0.000, 15:18:16.733, 1541665096733
119, 166362.11, 166319.70, 166516.72, 166389.70, 166519.28, -187500.02, -187500.02, -185382.92, 0.000, 0.000, 0.000, 15:18:16.733, 1541665096733
120, 166399.19, 166356.77, 166553.81, 166426.92, 166556.28, -187500.02, -187500.02, -185427.70, 0.000, 0.000, 0.000, 15:18:16.733, 1541665096733
121, 166374.52, 166332.11, 166529.14, 166402.31, 166531.53, -187500.02, -187500.02, -185422.72, 0.000, 0.000, 0.000, 15:18:16.733, 1541665096733
122, 166297.80, 166255.42, 166452.45, 166325.56, 166454.78, -187500.02, -187500.02, -185373.97, 0.000, 0.000, 0.000, 15:18:16.734, 1541665096734
123, 166250.38, 166208.02, 166405.02, 166278.22, 166407.44, -187500.02, -187500.02, -185347.52, 0.000, 0.000, 0.000, 15:18:16.734, 1541665096734
124, 166275.61, 166233.34, 166430.30, 166303.45, 166432.88, -187500.02, -187500.02, -185381.47, 0.000, 0.000, 0.000, 15:18:16.734, 1541665096734
125, 166314.42, 166272.14, 166469.17, 166342.28, 166471.72, -187500.02, -187500.02, -185428.02, 0.132, -0.022, 0.982, 15:18:16.735, 1541665096735
126, 166290.94, 166248.56, 166445.56, 166318.75, 166448.03, -187500.02, -187500.02, -185424.08, 0.000, 0.000, 0.000, 15:18:16.736, 1541665096736
127, 166215.14, 166172.83, 166369.69, 166242.88, 166372.16, -187500.02, -187500.02, -185376.41, 0.000, 0.000, 0.000, 15:18:16.736, 1541665096736
128, 166167.56, 166125.27, 166322.20, 166195.36, 166324.67, -187500.02, -187500.02, -185349.89, 0.000, 0.000, 0.000, 15:18:16.738, 1541665096738
129, 166187.77, 166145.34, 166342.41, 166215.52, 166344.78, -187500.02, -187500.02, -185378.61, 0.000, 0.000, 0.000, 15:18:16.738, 1541665096738
130, 166229.00, 166186.64, 166383.67, 166256.81, 166386.14, -187500.02, -187500.02, -185427.47, 0.000, 0.000, 0.000, 15:18:16.739, 1541665096739
131, 166208.50, 166166.08, 166363.20, 166236.27, 166365.64, -187500.02, -187500.02, -185426.41, 0.000, 0.000, 0.000, 15:18:16.740, 1541665096740
132, 166131.14, 166088.72, 166285.75, 166158.92, 166288.23, -187500.02, -187500.02, -185377.03, 0.000, 0.000, 0.000, 15:18:16.740, 1541665096740
133, 166080.88, 166038.50, 166235.38, 166108.66, 166237.81, -187500.02, -187500.02, -185348.13, 0.000, 0.000, 0.000, 15:18:16.740, 1541665096740
134, 166101.34, 166058.88, 166255.88, 166129.02, 166258.27, -187500.02, -187500.02, -185377.53, 0.000, 0.000, 0.000, 15:18:16.740, 1541665096740
135, 166141.34, 166098.84, 166295.94, 166169.02, 166298.27, -187500.02, -187500.02, -185424.95, 0.134, -0.028, 0.980, 15:18:16.740, 1541665096740
136, 166122.70, 166080.34, 166277.34, 166150.48, 166279.67, -187500.02, -187500.02, -185425.45, 0.000, 0.000, 0.000, 15:18:16.740, 1541665096740
137, 166045.98, 166003.67, 166200.61, 166073.81, 166203.05, -187500.02, -187500.02, -185376.69, 0.000, 0.000, 0.000, 15:18:16.740, 1541665096740
138, 165996.86, 165954.44, 166151.28, 166024.61, 166153.75, -187500.02, -187500.02, -185348.95, 0.000, 0.000, 0.000, 15:18:16.740, 1541665096740
139, 166016.59, 165974.13, 166171.11, 166044.38, 166173.45, -187500.02, -187500.02, -185377.69, 0.000, 0.000, 0.000, 15:18:16.740, 1541665096740
140, 166056.56, 166014.05, 166211.13, 166084.30, 166213.41, -187500.02, -187500.02, -185424.95, 0.000, 0.000, 0.000, 15:18:16.741, 1541665096741
141, 166040.00, 165997.53, 166194.52, 166067.75, 166196.86, -187500.02, -187500.02, -185427.34, 0.000, 0.000, 0.000, 15:18:16.741, 1541665096741
142, 165967.31, 165924.80, 166121.75, 165995.05, 166124.13, -187500.02, -187500.02, -185382.70, 0.000, 0.000, 0.000, 15:18:16.741, 1541665096741
143, 165916.91, 165874.41, 166071.28, 165944.55, 166073.61, -187500.02, -187500.02, -185354.14, 0.000, 0.000, 0.000, 15:18:16.741, 1541665096741
144, 165935.08, 165892.52, 166089.53, 165962.80, 166091.81, -187500.02, -187500.02, -185381.42, 0.000, 0.000, 0.000, 15:18:16.741, 1541665096741
145, 165974.27, 165931.81, 166128.84, 166002.13, 166131.19, -187500.02, -187500.02, -185427.73, 0.130, -0.024, 0.984, 15:18:16.741, 1541665096741
146, 165956.59, 165914.13, 166111.28, 165984.47, 166113.58, -187500.02, -187500.02, -185428.81, 0.000, 0.000, 0.000, 15:18:16.741, 1541665096741
147, 165884.25, 165841.75, 166038.91, 165912.08, 166041.05, -187500.02, -187500.02, -185384.28, 0.000, 0.000, 0.000, 15:18:16.741, 1541665096741
148, 165831.14, 165788.61, 165985.66, 165858.80, 165987.83, -187500.02, -187500.02, -185353.09, 0.000, 0.000, 0.000, 15:18:16.741, 1541665096741
149, 165846.67, 165804.27, 166001.30, 165874.44, 166003.58, -187500.02, -187500.02, -185378.19, 0.000, 0.000, 0.000, 15:18:16.741, 1541665096741
150, 165888.00, 165845.61, 166042.59, 165915.78, 166044.83, -187500.02, -187500.02, -185426.58, 0.000, 0.000, 0.000, 15:18:16.741, 1541665096741
151, 165872.92, 165830.36, 166027.39, 165900.66, 166029.64, -187500.02, -187500.02, -185429.91, 0.000, 0.000, 0.000, 15:18:16.741, 1541665096741
152, 165795.36, 165752.84, 165949.77, 165823.05, 165951.97, -187500.02, -187500.02, -185380.13, 0.000, 0.000, 0.000, 15:18:16.741, 1541665096741
153, 165738.73, 165696.25, 165893.13, 165766.47, 165895.38, -187500.02, -187500.02, -185345.69, 0.000, 0.000, 0.000, 15:18:16.741, 1541665096741
154, 165756.48, 165714.02, 165910.91, 165784.20, 165913.16, -187500.02, -187500.02, -185372.94, 0.000, 0.000, 0.000, 15:18:16.741, 1541665096741
155, 165799.33, 165756.83, 165953.72, 165827.08, 165955.97, -187500.02, -187500.02, -185422.56, 0.136, -0.030, 0.984, 15:18:16.741, 1541665096741
156, 165784.89, 165742.36, 165939.20, 165812.67, 165941.53, -187500.02, -187500.02, -185426.31, 0.000, 0.000, 0.000, 15:18:16.741, 1541665096741
157, 165714.02, 165671.48, 165868.41, 165741.73, 165870.64, -187500.02, -187500.02, -185383.28, 0.000, 0.000, 0.000, 15:18:16.742, 1541665096742
158, 165660.27, 165617.72, 165814.64, 165687.98, 165816.81, -187500.02, -187500.02, -185351.98, 0.000, 0.000, 0.000, 15:18:16.742, 1541665096742
159, 165675.06, 165632.52, 165829.36, 165702.81, 165831.56, -187500.02, -187500.02, -185376.56, 0.000, 0.000, 0.000, 15:18:16.742, 1541665096742
160, 165715.67, 165673.06, 165869.86, 165743.28, 165872.16, -187500.02, -187500.02, -185424.03, 0.000, 0.000, 0.000, 15:18:16.742, 1541665096742
161, 165701.88, 165659.30, 165856.16, 165729.48, 165858.39, -187500.02, -187500.02, -185427.92, 0.000, 0.000, 0.000, 15:18:16.742, 1541665096742
162, 165628.61, 165586.09, 165782.97, 165656.34, 165785.19, -187500.02, -187500.02, -185382.36, 0.000, 0.000, 0.000, 15:18:16.742, 1541665096742
163, 165573.92, 165531.38, 165728.23, 165601.77, 165730.45, -187500.02, -187500.02, -185350.20, 0.000, 0.000, 0.000, 15:18:16.742, 1541665096742
164, 165589.34, 165546.72, 165743.64, 165617.09, 165745.78, -187500.02, -187500.02, -185375.39, 0.132, -0.028, 0.982, 15:18:16.742, 1541665096742
165, 165630.95, 165588.33, 165785.39, 165658.78, 165787.48, -187500.02, -187500.02, -185423.89, 0.000, 0.000, 0.000, 15:18:16.742, 1541665096742
166, 165619.78, 165577.16, 165774.19, 165647.66, 165776.33, -187500.02, -187500.02, -185430.38, 0.000, 0.000, 0.000, 15:18:16.742, 1541665096742
167, 165547.88, 165505.28, 165702.23, 165575.75, 165704.34, -187500.02, -187500.02, -185385.73, 0.000, 0.000, 0.000, 15:18:16.742, 1541665096742
168, 165491.23, 165448.80, 165645.63, 165519.16, 165647.78, -187500.02, -187500.02, -185351.75, 0.000, 0.000, 0.000, 15:18:16.742, 1541665096742
169, 165504.09, 165461.64, 165658.45, 165531.98, 165660.70, -187500.02, -187500.02, -185374.61, 0.000, 0.000, 0.000, 15:18:16.742, 1541665096742
170, 165543.11, 165500.73, 165697.52, 165571.03, 165699.73, -187500.02, -187500.02, -185420.23, 0.000, 0.000, 0.000, 15:18:16.742, 1541665096742
171, 165532.34, 165489.88, 165686.75, 165560.17, 165688.83, -187500.02, -187500.02, -185426.69, 0.000, 0.000, 0.000, 15:18:16.742, 1541665096742
172, 165460.66, 165418.19, 165615.05, 165488.53, 165617.08, -187500.02, -187500.02, -185382.45, 0.000, 0.000, 0.000, 15:18:16.742, 1541665096742
173, 165402.91, 165360.45, 165557.22, 165430.73, 165559.33, -187500.02, -187500.02, -185347.70, 0.000, 0.000, 0.000, 15:18:16.742, 1541665096742
174, 165414.08, 165371.72, 165568.44, 165441.97, 165570.61, -187500.02, -187500.02, -185369.17, 0.128, -0.030, 0.984, 15:18:16.743, 1541665096743
175, 165455.59, 165413.09, 165609.95, 165483.50, 165612.09, -187500.02, -187500.02, -185417.33, 0.000, 0.000, 0.000, 15:18:16.743, 1541665096743
176, 165446.72, 165404.25, 165601.08, 165474.55, 165603.20, -187500.02, -187500.02, -185425.59, 0.000, 0.000, 0.000, 15:18:16.743, 1541665096743
177, 165377.78, 165335.27, 165532.03, 165405.58, 165534.20, -187500.02, -187500.02, -185383.78, 0.000, 0.000, 0.000, 15:18:16.743, 1541665096743
178, 165319.02, 165276.53, 165473.22, 165346.88, 165475.41, -187500.02, -187500.02, -185348.17, 0.000, 0.000, 0.000, 15:18:16.743, 1541665096743
179, 165329.67, 165287.14, 165483.91, 165357.50, 165486.03, -187500.02, -187500.02, -185369.22, 0.000, 0.000, 0.000, 15:18:16.743, 1541665096743
180, 165372.27, 165329.61, 165526.48, 165400.17, 165528.56, -187500.02, -187500.02, -185418.22, 0.000, 0.000, 0.000, 15:18:16.743, 1541665096743
181, 165365.11, 165322.50, 165519.44, 165392.95, 165521.41, -187500.02, -187500.02, -185428.08, 0.000, 0.000, 0.000, 15:18:16.743, 1541665096743
182, 165294.23, 165251.78, 165448.59, 165322.22, 165450.58, -187500.02, -187500.02, -185384.64, 0.000, 0.000, 0.000, 15:18:16.743, 1541665096743
183, 165233.67, 165191.28, 165387.95, 165261.59, 165390.03, -187500.02, -187500.02, -185347.52, 0.000, 0.000, 0.000, 15:18:16.743, 1541665096743
184, 165243.20, 165200.59, 165397.42, 165271.03, 165399.48, -187500.02, -187500.02, -185367.55, 0.126, -0.030, 0.982, 15:18:16.743, 1541665096743
185, 165284.58, 165242.08, 165438.86, 165312.45, 165440.86, -187500.02, -187500.02, -185415.14, 0.000, 0.000, 0.000, 15:18:16.744, 1541665096744
186, 165280.06, 165237.52, 165434.31, 165307.86, 165436.30, -187500.02, -187500.02, -185427.09, 0.000, 0.000, 0.000, 15:18:16.744, 1541665096744
187, 165209.41, 165166.89, 165363.70, 165237.25, 165365.70, -187500.02, -187500.02, -185383.66, 0.000, 0.000, 0.000, 15:18:16.744, 1541665096744
188, 165149.72, 165107.25, 165303.86, 165177.55, 165305.97, -187500.02, -187500.02, -185347.45, 0.000, 0.000, 0.000, 15:18:16.744, 1541665096744
189, 165157.81, 165115.33, 165311.95, 165185.69, 165313.94, -187500.02, -187500.02, -185366.34, 0.000, 0.000, 0.000, 15:18:16.744, 1541665096744
190, 165198.16, 165155.63, 165352.33, 165225.97, 165354.38, -187500.02, -187500.02, -185413.02, 0.000, 0.000, 0.000, 15:18:16.744, 1541665096744
191, 165193.56, 165150.97, 165347.69, 165221.36, 165349.73, -187500.02, -187500.02, -185424.77, 0.000, 0.000, 0.000, 15:18:16.744, 1541665096744
192, 165123.80, 165081.11, 165277.98, 165151.53, 165279.91, -187500.02, -187500.02, -185381.98, 0.000, 0.000, 0.000, 15:18:16.744, 1541665096744
193, 165062.13, 165019.55, 165216.31, 165090.00, 165218.28, -187500.02, -187500.02, -185344.09, 0.000, 0.000, 0.000, 15:18:16.744, 1541665096744
194, 165070.05, 165027.53, 165224.30, 165097.88, 165226.22, -187500.02, -187500.02, -185363.03, 0.126, -0.030, 0.982, 15:18:16.744, 1541665096744
195, 165113.88, 165071.34, 165268.09, 165141.67, 165270.11, -187500.02, -187500.02, -185413.03, 0.000, 0.000, 0.000, 15:18:16.744, 1541665096744
196, 165109.56, 165066.95, 165263.77, 165137.31, 165265.69, -187500.02, -187500.02, -185424.83, 0.000, 0.000, 0.000, 15:18:16.745, 1541665096745
197, 165041.59, 164999.05, 165195.75, 165069.44, 165197.73, -187500.02, -187500.02, -185383.91, 0.000, 0.000, 0.000, 15:18:16.745, 1541665096745
198, 164980.97, 164938.39, 165135.08, 165008.84, 165137.09, -187500.02, -187500.02, -185347.28, 0.000, 0.000, 0.000, 15:18:16.745, 1541665096745
199, 164986.11, 164943.64, 165140.31, 165014.08, 165142.27, -187500.02, -187500.02, -185363.61, 0.000, 0.000, 0.000, 15:18:16.745, 1541665096745
200, 165027.81, 164985.33, 165182.05, 165055.72, 165184.02, -187500.02, -187500.02, -185411.42, 0.000, 0.000, 0.000, 15:18:16.745, 1541665096745
201, 165024.83, 164982.17, 165178.92, 165052.67, 165180.86, -187500.02, -187500.02, -185424.08, 0.000, 0.000, 0.000, 15:18:16.745, 1541665096745
202, 164957.39, 164914.70, 165111.39, 164985.03, 165113.31, -187500.02, -187500.02, -185383.38, 0.000, 0.000, 0.000, 15:18:16.745, 1541665096745
203, 164894.69, 164852.05, 165048.69, 164922.44, 165050.58, -187500.02, -187500.02, -185344.91, 0.000, 0.000, 0.000, 15:18:16.745, 1541665096745
204, 164901.11, 164858.53, 165055.17, 164928.91, 165057.09, -187500.02, -187500.02, -185362.77, 0.128, -0.026, 0.980, 15:18:16.745, 1541665096745
205, 164943.44, 164900.91, 165097.52, 164971.30, 165099.45, -187500.02, -187500.02, -185411.33, 0.000, 0.000, 0.000, 15:18:16.745, 1541665096745
206, 164941.31, 164898.77, 165095.33, 164969.19, 165097.33, -187500.02, -187500.02, -185424.91, 0.000, 0.000, 0.000, 15:18:16.746, 1541665096746
207, 164874.23, 164831.66, 165028.22, 164902.02, 165030.14, -187500.02, -187500.02, -185384.56, 0.000, 0.000, 0.000, 15:18:16.746, 1541665096746
208, 164810.17, 164767.58, 164964.23, 164838.08, 164966.13, -187500.02, -187500.02, -185344.86, 0.000, 0.000, 0.000, 15:18:16.746, 1541665096746
209, 164815.86, 164773.23, 164969.77, 164843.63, 164971.77, -187500.02, -187500.02, -185361.84, 0.000, 0.000, 0.000, 15:18:16.746, 1541665096746
210, 164858.73, 164815.98, 165012.64, 164886.42, 165014.55, -187500.02, -187500.02, -185410.64, 0.000, 0.000, 0.000, 15:18:16.746, 1541665096746
211, 164858.53, 164815.91, 165012.63, 164886.38, 165014.45, -187500.02, -187500.02, -185426.11, 0.000, 0.000, 0.000, 15:18:16.746, 1541665096746
212, 164792.05, 164749.52, 164946.22, 164819.95, 164948.00, -187500.02, -187500.02, -185386.39, 0.000, 0.000, 0.000, 15:18:16.746, 1541665096746
213, 164724.73, 164682.16, 164878.80, 164752.59, 164880.55, -187500.02, -187500.02, -185343.55, 0.000, 0.000, 0.000, 15:18:16.746, 1541665096746
214, 164727.20, 164684.56, 164881.23, 164755.02, 164882.95, -187500.02, -187500.02, -185357.67, 0.132, -0.026, 0.976, 15:18:16.747, 1541665096747
215, 164770.73, 164728.08, 164924.70, 164798.48, 164926.50, -187500.02, -187500.02, -185407.13, 0.000, 0.000, 0.000, 15:18:16.747, 1541665096747
216, 164771.91, 164729.20, 164925.84, 164799.67, 164927.66, -187500.02, -187500.02, -185423.52, 0.000, 0.000, 0.000, 15:18:16.747, 1541665096747
217, 164709.11, 164666.38, 164863.09, 164736.89, 164864.86, -187500.02, -187500.02, -185387.16, 0.000, 0.000, 0.000, 15:18:16.747, 1541665096747
218, 164643.45, 164600.81, 164797.48, 164671.39, 164799.23, -187500.02, -187500.02, -185346.05, 0.000, 0.000, 0.000, 15:18:16.747, 1541665096747
219, 164644.58, 164602.08, 164798.64, 164672.50, 164800.44, -187500.02, -187500.02, -185359.13, 0.000, 0.000, 0.000, 15:18:16.747, 1541665096747
220, 164687.17, 164644.63, 164841.19, 164715.03, 164843.02, -187500.02, -187500.02, -185407.69, 0.000, 0.000, 0.000, 15:18:16.747, 1541665096747
221, 164690.13, 164647.55, 164844.17, 164717.98, 164845.97, -187500.02, -187500.02, -185425.73, 0.000, 0.000, 0.000, 15:18:16.748, 1541665096748
222, 164626.78, 164584.25, 164780.83, 164654.70, 164782.59, -187500.02, -187500.02, -185388.84, 0.000, 0.000, 0.000, 15:18:16.748, 1541665096748
223, 164559.42, 164516.80, 164713.44, 164587.38, 164715.16, -187500.02, -187500.02, -185346.27, 0.128, -0.028, 0.974, 15:18:16.748, 1541665096748
224, 164559.92, 164517.23, 164713.91, 164587.88, 164715.63, -187500.02, -187500.02, -185358.92, 0.000, 0.000, 0.000, 15:18:16.748, 1541665096748
225, 164603.81, 164561.19, 164757.78, 164631.66, 164759.53, -187500.02, -187500.02, -185408.63, 0.000, 0.000, 0.000, 15:18:17.210, 1541665097210
226, 164606.22, 164563.69, 164760.27, 164634.16, 164761.92, -187500.02, -187500.02, -185425.84, 0.000, 0.000, 0.000, 15:18:17.210, 1541665097210
227, 164541.69, 164499.09, 164695.56, 164569.61, 164697.23, -187500.02, -187500.02, -185387.50, 0.000, 0.000, 0.000, 15:18:17.210, 1541665097210
228, 164475.50, 164432.92, 164629.44, 164503.42, 164631.03, -187500.02, -187500.02, -185346.41, 0.000, 0.000, 0.000, 15:18:17.210, 1541665097210
229, 164474.75, 164432.13, 164628.66, 164502.67, 164630.22, -187500.02, -187500.02, -185358.08, 0.000, 0.000, 0.000, 15:18:17.210, 1541665097210
230, 164516.81, 164474.25, 164670.73, 164544.81, 164672.41, -187500.02, -187500.02, -185406.13, 0.000, 0.000, 0.000, 15:18:17.211, 1541665097211
231, 164519.14, 164476.48, 164673.05, 164547.08, 164674.75, -187500.02, -187500.02, -185422.95, 0.000, 0.000, 0.000, 15:18:17.211, 1541665097211
232, 164455.55, 164413.02, 164609.42, 164483.44, 164611.14, -187500.02, -187500.02, -185385.72, 0.000, 0.000, 0.000, 15:18:17.211, 1541665097211
233, 164387.94, 164345.31, 164541.72, 164415.77, 164543.45, -187500.02, -187500.02, -185343.14, 0.128, -0.028, 0.980, 15:18:17.211, 1541665097211
234, 164387.78, 164345.08, 164541.63, 164415.66, 164543.28, -187500.02, -187500.02, -185355.50, 0.000, 0.000, 0.000, 15:18:17.211, 1541665097211
235, 164431.67, 164388.98, 164585.64, 164459.56, 164587.25, -187500.02, -187500.02, -185405.25, 0.000, 0.000, 0.000, 15:18:17.211, 1541665097211
236, 164437.20, 164394.58, 164591.22, 164465.03, 164592.67, -187500.02, -187500.02, -185425.13, 0.000, 0.000, 0.000, 15:18:17.211, 1541665097211
237, 164374.67, 164332.02, 164528.59, 164402.55, 164530.16, -187500.02, -187500.02, -185388.88, 0.000, 0.000, 0.000, 15:18:17.211, 1541665097211
238, 164305.28, 164262.66, 164459.17, 164333.31, 164460.91, -187500.02, -187500.02, -185344.84, 0.000, 0.000, 0.000, 15:18:17.211, 1541665097211
239, 164301.91, 164259.25, 164455.77, 164329.81, 164457.45, -187500.02, -187500.02, -185354.06, 0.000, 0.000, 0.000, 15:18:17.211, 1541665097211
240, 164343.78, 164301.14, 164497.66, 164371.66, 164499.25, -187500.02, -187500.02, -185401.72, 0.000, 0.000, 0.000, 15:18:17.211, 1541665097211
241, 164353.13, 164310.39, 164507.05, 164381.00, 164508.59, -187500.02, -187500.02, -185425.17, 0.000, 0.000, 0.000, 15:18:17.211, 1541665097211
242, 164292.80, 164250.22, 164446.67, 164320.77, 164448.34, -187500.02, -187500.02, -185390.86, 0.000, 0.000, 0.000, 15:18:17.211, 1541665097211
243, 164220.70, 164178.11, 164374.48, 164248.64, 164376.17, -187500.02, -187500.02, -185344.19, 0.132, -0.026, 0.982, 15:18:17.211, 1541665097211
244, 164218.50, 164175.84, 164372.23, 164246.45, 164374.00, -187500.02, -187500.02, -185355.02, 0.000, 0.000, 0.000, 15:18:17.211, 1541665097211
245, 164262.47, 164219.78, 164416.16, 164290.38, 164417.92, -187500.02, -187500.02, -185404.86, 0.000, 0.000, 0.000, 15:18:17.211, 1541665097211
246, 164271.23, 164228.61, 164425.03, 164299.16, 164426.72, -187500.02, -187500.02, -185427.58, 0.000, 0.000, 0.000, 15:18:17.211, 1541665097211
247, 164211.06, 164168.39, 164364.84, 164238.91, 164366.50, -187500.02, -187500.02, -185393.23, 0.000, 0.000, 0.000, 15:18:17.211, 1541665097211
248, 164142.91, 164100.17, 164296.63, 164170.72, 164298.22, -187500.02, -187500.02, -185350.78, 0.000, 0.000, 0.000, 15:18:17.211, 1541665097211
249, 164135.45, 164092.67, 164289.19, 164163.25, 164290.75, -187500.02, -187500.02, -185356.44, 0.000, 0.000, 0.000, 15:18:17.211, 1541665097211
250, 164178.77, 164136.08, 164332.56, 164206.55, 164334.13, -187500.02, -187500.02, -185405.50, 0.000, 0.000, 0.000, 15:18:17.211, 1541665097211
251, 164188.78, 164146.13, 164342.63, 164216.58, 164344.17, -187500.02, -187500.02, -185429.16, 0.000, 0.000, 0.000, 15:18:17.212, 1541665097212
252, 164129.88, 164087.25, 164283.69, 164157.86, 164285.30, -187500.02, -187500.02, -185396.09, 0.000, 0.000, 0.000, 15:18:17.212, 1541665097212
253, 164057.17, 164014.48, 164210.73, 164085.14, 164212.42, -187500.02, -187500.02, -185349.22, 0.132, -0.026, 0.980, 15:18:17.212, 1541665097212
254, 164049.14, 164006.48, 164202.80, 164077.09, 164204.36, -187500.02, -187500.02, -185354.61, 0.000, 0.000, 0.000, 15:18:17.212, 1541665097212
255, 164092.89, 164050.27, 164246.73, 164120.81, 164248.17, -187500.02, -187500.02, -185404.30, 0.000, 0.000, 0.000, 15:18:17.212, 1541665097212
0, 164102.36, 164059.70, 164256.17, 164130.27, 164257.69, -187500.02, -187500.02, -185427.09, 0.000, 0.000, 0.000, 15:18:17.212, 1541665097212
1, 164044.05, 164001.38, 164197.78, 164072.02, 164199.23, -187500.02, -187500.02, -185394.22, 0.000, 0.000, 0.000, 15:18:17.213, 1541665097213
2, 163972.14, 163929.50, 164125.91, 164000.08, 164127.28, -187500.02, -187500.02, -185348.19, 0.000, 0.000, 0.000, 15:18:17.213, 1541665097213
3, 163964.92, 163922.23, 164118.70, 163992.84, 164120.09, -187500.02, -187500.02, -185354.66, 0.000, 0.000, 0.000, 15:18:17.213, 1541665097213
4, 164005.38, 163962.69, 164159.16, 164033.33, 164160.66, -187500.02, -187500.02, -185401.03, 0.000, 0.000, 0.000, 15:18:17.213, 1541665097213
5, 164016.48, 163973.86, 164170.06, 164044.39, 164171.75, -187500.02, -187500.02, -185425.34, 0.000, 0.000, 0.000, 15:18:17.213, 1541665097213
6, 163958.28, 163915.70, 164112.00, 163986.31, 164113.56, -187500.02, -187500.02, -185392.67, 0.000, 0.000, 0.000, 15:18:17.213, 1541665097213
7, 163886.77, 163844.14, 164040.45, 163914.77, 164041.89, -187500.02, -187500.02, -185347.23, 0.126, -0.020, 0.982, 15:18:17.213, 1541665097213
8, 163877.44, 163834.77, 164031.06, 163905.42, 164032.47, -187500.02, -187500.02, -185351.59, 0.000, 0.000, 0.000, 15:18:17.213, 1541665097213
9, 163918.28, 163875.61, 164071.98, 163946.28, 164073.47, -187500.02, -187500.02, -185398.30, 0.000, 0.000, 0.000, 15:18:17.213, 1541665097213
10, 163929.88, 163887.14, 164083.44, 163957.73, 164084.91, -187500.02, -187500.02, -185422.72, 0.000, 0.000, 0.000, 15:18:17.213, 1541665097213
11, 163872.91, 163830.17, 164026.50, 163900.78, 164028.00, -187500.02, -187500.02, -185391.00, 0.000, 0.000, 0.000, 15:18:17.213, 1541665097213
12, 163799.30, 163756.56, 163953.02, 163827.17, 163954.31, -187500.02, -187500.02, -185343.56, 0.000, 0.000, 0.000, 15:18:17.214, 1541665097214
13, 163789.95, 163747.28, 163943.67, 163817.92, 163944.92, -187500.02, -187500.02, -185348.45, 0.000, 0.000, 0.000, 15:18:17.214, 1541665097214
14, 163831.39, 163788.64, 163985.05, 163859.27, 163986.34, -187500.02, -187500.02, -185395.91, 0.000, 0.000, 0.000, 15:18:17.214, 1541665097214
15, 163845.02, 163802.16, 163998.63, 163872.80, 164000.02, -187500.02, -187500.02, -185422.16, 0.000, 0.000, 0.000, 15:18:17.214, 1541665097214
16, 163791.09, 163748.31, 163944.81, 163818.97, 163946.08, -187500.02, -187500.02, -185393.36, 0.000, 0.000, 0.000, 15:18:17.214, 1541665097214
17, 163717.27, 163674.48, 163870.98, 163745.23, 163872.23, -187500.02, -187500.02, -185345.80, 0.126, -0.026, 0.988, 15:18:17.214, 1541665097214
18, 163704.63, 163661.86, 163858.27, 163732.64, 163859.56, -187500.02, -187500.02, -185347.44, 0.000, 0.000, 0.000, 15:18:17.214, 1541665097214
19, 163747.13, 163704.48, 163900.83, 163775.14, 163902.19, -187500.02, -187500.02, -185395.86, 0.000, 0.000, 0.000, 15:18:17.214, 1541665097214
20, 163761.56, 163718.88, 163915.19, 163789.48, 163916.63, -187500.02, -187500.02, -185422.67, 0.000, 0.000, 0.000, 15:18:17.214, 1541665097214
21, 163708.28, 163665.53, 163861.86, 163736.27, 163863.27, -187500.02, -187500.02, -185394.38, 0.000, 0.000, 0.000, 15:18:17.214, 1541665097214
22, 163634.45, 163591.63, 163787.94, 163662.34, 163789.33, -187500.02, -187500.02, -185347.05, 0.000, 0.000, 0.000, 15:18:17.214, 1541665097214
23, 163620.44, 163577.64, 163773.91, 163648.42, 163775.34, -187500.02, -187500.02, -185347.75, 0.000, 0.000, 0.000, 15:18:17.214, 1541665097214
24, 163663.42, 163620.64, 163816.91, 163691.41, 163818.39, -187500.02, -187500.02, -185396.66, 0.000, 0.000, 0.000, 15:18:17.215, 1541665097215
25, 163678.13, 163635.28, 163831.67, 163706.03, 163832.98, -187500.02, -187500.02, -185423.42, 0.000, 0.000, 0.000, 15:18:17.215, 1541665097215
26, 163624.33, 163581.59, 163777.95, 163652.22, 163779.20, -187500.02, -187500.02, -185394.38, 0.122, -0.024, 0.984, 15:18:17.215, 1541665097215
27, 163551.94, 163509.22, 163705.42, 163579.88, 163706.81, -187500.02, -187500.02, -185348.58, 0.000, 0.000, 0.000, 15:18:17.215, 1541665097215
28, 163537.27, 163494.53, 163690.80, 163565.23, 163692.08, -187500.02, -187500.02, -185348.84, 0.000, 0.000, 0.000, 15:18:17.215, 1541665097215
29, 163576.47, 163533.78, 163730.13, 163604.44, 163731.34, -187500.02, -187500.02, -185394.08, 0.000, 0.000, 0.000, 15:18:17.215, 1541665097215
30, 163594.72, 163552.00, 163748.30, 163622.66, 163749.67, -187500.02, -187500.02, -185424.23, 0.000, 0.000, 0.000, 15:18:17.215, 1541665097215
31, 163544.27, 163501.53, 163697.84, 163572.20, 163699.14, -187500.02, -187500.02, -185398.44, 0.000, 0.000, 0.000, 15:18:17.215, 1541665097215
32, 163469.20, 163426.45, 163622.78, 163497.16, 163624.02, -187500.02, -187500.02, -185350.09, 0.000, 0.000, 0.000, 15:18:17.215, 1541665097215
33, 163450.95, 163408.19, 163604.58, 163478.84, 163605.80, -187500.02, -187500.02, -185346.67, 0.000, 0.000, 0.000, 15:18:17.215, 1541665097215
34, 163490.44, 163447.73, 163644.14, 163518.42, 163645.36, -187500.02, -187500.02, -185392.22, 0.000, 0.000, 0.000, 15:18:17.215, 1541665097215
35, 163509.58, 163466.86, 163663.25, 163537.50, 163664.39, -187500.02, -187500.02, -185423.05, 0.000, 0.000, 0.000, 15:18:17.215, 1541665097215
36, 163459.36, 163416.77, 163612.95, 163487.30, 163614.19, -187500.02, -187500.02, -185397.34, 0.130, -0.026, 0.984, 15:18:17.216, 1541665097216
37, 163383.58, 163340.94, 163537.30, 163411.70, 163538.41, -187500.02, -187500.02, -185348.53, 0.000, 0.000, 0.000, 15:18:17.216, 1541665097216
38, 163367.64, 163324.92, 163521.27, 163395.67, 163522.42, -187500.02, -187500.02, -185347.86, 0.000, 0.000, 0.000, 15:18:17.216, 1541665097216
39, 163408.02, 163365.39, 163561.67, 163436.03, 163562.94, -187500.02, -187500.02, -185394.33, 0.000, 0.000, 0.000, 15:18:17.216, 1541665097216
40, 163425.94, 163383.41, 163579.63, 163453.98, 163580.83, -187500.02, -187500.02, -185423.83, 0.000, 0.000, 0.000, 15:18:17.216, 1541665097216
41, 163374.11, 163331.41, 163527.61, 163402.16, 163528.91, -187500.02, -187500.02, -185396.03, 0.000, 0.000, 0.000, 15:18:17.216, 1541665097216
42, 163296.94, 163254.30, 163450.44, 163325.06, 163451.66, -187500.02, -187500.02, -185345.78, 0.000, 0.000, 0.000, 15:18:17.216, 1541665097216
43, 163276.89, 163234.30, 163430.42, 163305.02, 163431.64, -187500.02, -187500.02, -185341.28, 0.000, 0.000, 0.000, 15:18:17.216, 1541665097216
44, 163317.47, 163274.86, 163471.06, 163345.52, 163472.20, -187500.02, -187500.02, -185387.89, 0.000, 0.000, 0.000, 15:18:17.216, 1541665097216
45, 163340.23, 163297.64, 163493.70, 163368.30, 163494.98, -187500.02, -187500.02, -185422.05, 0.000, 0.000, 0.000, 15:18:17.218, 1541665097218
46, 163292.20, 163249.52, 163445.69, 163320.25, 163446.92, -187500.02, -187500.02, -185398.03, 0.132, -0.026, 0.980, 15:18:17.218, 1541665097218
47, 163214.47, 163171.80, 163367.95, 163242.56, 163369.13, -187500.02, -187500.02, -185347.41, 0.000, 0.000, 0.000, 15:18:17.219, 1541665097219
48, 163194.81, 163152.16, 163348.38, 163222.89, 163349.47, -187500.02, -187500.02, -185343.56, 0.000, 0.000, 0.000, 15:18:17.219, 1541665097219
49, 163235.75, 163193.08, 163389.30, 163263.81, 163390.47, -187500.02, -187500.02, -185390.59, 0.000, 0.000, 0.000, 15:18:17.220, 1541665097220
50, 163258.48, 163215.83, 163412.02, 163286.50, 163413.22, -187500.02, -187500.02, -185424.45, 0.000, 0.000, 0.000, 15:18:17.220, 1541665097220
51, 163208.88, 163166.16, 163362.33, 163236.95, 163363.50, -187500.02, -187500.02, -185398.53, 0.000, 0.000, 0.000, 15:18:17.220, 1541665097220
52, 163133.75, 163091.06, 163287.17, 163161.88, 163288.31, -187500.02, -187500.02, -185350.52, 0.000, 0.000, 0.000, 15:18:17.220, 1541665097220
53, 163112.50, 163069.69, 163265.88, 163140.55, 163266.97, -187500.02, -187500.02, -185345.31, 0.000, 0.000, 0.000, 15:18:17.220, 1541665097220
54, 163150.14, 163107.36, 163303.53, 163178.13, 163304.70, -187500.02, -187500.02, -185389.25, 0.000, 0.000, 0.000, 15:18:17.220, 1541665097220
55, 163174.80, 163132.08, 163328.23, 163202.80, 163329.38, -187500.02, -187500.02, -185424.83, 0.000, 0.000, 0.000, 15:18:17.220, 1541665097220
56, 163128.95, 163086.30, 163282.38, 163156.98, 163283.42, -187500.02, -187500.02, -185402.55, 0.130, -0.024, 0.978, 15:18:17.220, 1541665097220
57, 163053.47, 163010.69, 163206.80, 163081.47, 163207.83, -187500.02, -187500.02, -185354.14, 0.000, 0.000, 0.000, 15:18:17.220, 1541665097220
58, 163029.66, 162986.86, 163183.05, 163057.69, 163184.09, -187500.02, -187500.02, -185346.58, 0.000, 0.000, 0.000, 15:18:17.220, 1541665097220
59, 163064.94, 163022.28, 163218.38, 163093.03, 163219.50, -187500.02, -187500.02, -185388.20, 0.000, 0.000, 0.000, 15:18:17.220, 1541665097220
60, 163087.38, 163044.75, 163240.89, 163115.50, 163241.92, -187500.02, -187500.02, -185421.33, 0.000, 0.000, 0.000, 15:18:17.220, 1541665097220
61, 163042.81, 163000.11, 163196.34, 163070.97, 163197.33, -187500.02, -187500.02, -185400.31, 0.000, 0.000, 0.000, 15:18:17.220, 1541665097220
62, 162966.16, 162923.45, 163119.66, 162994.38, 163120.64, -187500.02, -187500.02, -185351.05, 0.000, 0.000, 0.000, 15:18:17.220, 1541665097220
63, 162940.88, 162898.03, 163094.22, 162968.94, 163095.22, -187500.02, -187500.02, -185342.16, 0.000, 0.000, 0.000, 15:18:17.221, 1541665097221
64, 162978.20, 162935.42, 163131.55, 163006.22, 163132.48, -187500.02, -187500.02, -185385.73, 0.000, 0.000, 0.000, 15:18:17.221, 1541665097221
65, 163001.50, 162958.81, 163154.91, 163029.55, 163155.72, -187500.02, -187500.02, -185419.36, 0.000, 0.000, 0.000, 15:18:17.221, 1541665097221
66, 162957.20, 162914.53, 163110.67, 162985.34, 163111.58, -187500.02, -187500.02, -185398.48, 0.126, -0.022, 0.974, 15:18:17.221, 1541665097221
67, 162879.80, 162837.19, 163033.27, 162907.91, 163034.20, -187500.02, -187500.02, -185348.58, 0.000, 0.000, 0.000, 15:18:17.221, 1541665097221
68, 162852.03, 162809.39, 163005.41, 162880.16, 163006.42, -187500.02, -187500.02, -185337.48, 0.000, 0.000, 0.000, 15:18:17.221, 1541665097221
69, 162889.22, 162846.53, 163042.64, 162917.30, 163043.55, -187500.02, -187500.02, -185381.09, 0.000, 0.000, 0.000, 15:18:17.221, 1541665097221
70, 162917.41, 162874.72, 163070.92, 162945.50, 163071.81, -187500.02, -187500.02, -185419.56, 0.000, 0.000, 0.000, 15:18:17.221, 1541665097221
71, 162876.00, 162833.25, 163029.42, 162904.17, 163030.28, -187500.02, -187500.02, -185401.17, 0.000, 0.000, 0.000, 15:18:17.221, 1541665097221
72, 162798.80, 162756.09, 162952.09, 162826.78, 162953.00, -187500.02, -187500.02, -185351.41, 0.000, 0.000, 0.000, 15:18:17.221, 1541665097221
73, 162770.42, 162727.73, 162923.67, 162798.39, 162924.67, -187500.02, -187500.02, -185339.89, 0.000, 0.000, 0.000, 15:18:17.221, 1541665097221
74, 162805.91, 162763.14, 162959.17, 162833.95, 162960.19, -187500.02, -187500.02, -185381.97, 0.000, 0.000, 0.000, 15:18:17.221, 1541665097221
75, 162832.94, 162790.19, 162986.23, 162861.05, 162987.27, -187500.02, -187500.02, -185419.14, 0.000, 0.000, 0.000, 15:18:17.221, 1541665097221
76, 162790.39, 162747.72, 162943.77, 162818.45, 162944.59, -187500.02, -187500.02, -185399.44, 0.130, -0.020, 0.976, 15:18:17.221, 1541665097221
77, 162711.94, 162669.16, 162865.22, 162739.98, 162866.06, -187500.02, -187500.02, -185348.58, 0.000, 0.000, 0.000, 15:18:17.221, 1541665097221
78, 162683.66, 162640.81, 162836.94, 162711.73, 162837.89, -187500.02, -187500.02, -185337.55, 0.000, 0.000, 0.000, 15:18:17.221, 1541665097221
79, 162718.55, 162675.80, 162871.88, 162746.59, 162872.78, -187500.02, -187500.02, -185378.98, 0.000, 0.000, 0.000, 15:18:17.221, 1541665097221
80, 162747.84, 162705.06, 162901.11, 162775.88, 162902.03, -187500.02, -187500.02, -185418.16, 0.000, 0.000, 0.000, 15:18:17.221, 1541665097221
81, 162706.39, 162663.56, 162859.52, 162734.42, 162860.53, -187500.02, -187500.02, -185399.13, 0.000, 0.000, 0.000, 15:18:17.221, 1541665097221
82, 162630.92, 162588.27, 162784.16, 162659.11, 162785.14, -187500.02, -187500.02, -185351.34, 0.000, 0.000, 0.000, 15:18:17.221, 1541665097221
83, 162602.92, 162560.19, 162756.17, 162630.97, 162757.03, -187500.02, -187500.02, -185340.86, 0.000, 0.000, 0.000, 15:18:17.222, 1541665097222
84, 162635.64, 162592.86, 162788.91, 162663.70, 162789.78, -187500.02, -187500.02, -185380.25, 0.000, 0.000, 0.000, 15:18:17.222, 1541665097222
85, 162664.39, 162621.66, 162817.61, 162692.48, 162818.64, -187500.02, -187500.02, -185418.80, 0.130, -0.020, 0.976, 15:18:17.222, 1541665097222
86, 162625.92, 162583.16, 162779.09, 162654.05, 162780.02, -187500.02, -187500.02, -185402.73, 0.000, 0.000, 0.000, 15:18:17.222, 1541665097222
87, 162547.11, 162504.33, 162700.27, 162575.27, 162701.09, -187500.02, -187500.02, -185351.52, 0.000, 0.000, 0.000, 15:18:17.222, 1541665097222
88, 162512.98, 162470.27, 162666.16, 162541.17, 162666.98, -187500.02, -187500.02, -185335.11, 0.000, 0.000, 0.000, 15:18:17.222, 1541665097222
89, 162546.97, 162504.23, 162700.16, 162575.09, 162701.11, -187500.02, -187500.02, -185375.73, 0.000, 0.000, 0.000, 15:18:17.222, 1541665097222
90, 162576.38, 162533.55, 162729.50, 162604.44, 162730.44, -187500.02, -187500.02, -185414.52, 0.000, 0.000, 0.000, 15:18:17.690, 1541665097690
91, 162537.61, 162494.73, 162690.72, 162565.73, 162691.55, -187500.02, -187500.02, -185397.98, 0.000, 0.000, 0.000, 15:18:17.690, 1541665097690
92, 162460.72, 162417.97, 162613.94, 162488.91, 162614.81, -187500.02, -187500.02, -185348.86, 0.000, 0.000, 0.000, 15:18:17.690, 1541665097690
93, 162428.69, 162386.05, 162581.98, 162456.92, 162582.77, -187500.02, -187500.02, -185335.08, 0.000, 0.000, 0.000, 15:18:17.690, 1541665097690
94, 162458.03, 162415.44, 162611.38, 162486.27, 162612.13, -187500.02, -187500.02, -185371.30, 0.000, 0.000, 0.000, 15:18:17.690, 1541665097690
95, 162487.98, 162445.34, 162641.25, 162516.17, 162642.16, -187500.02, -187500.02, -185410.44, 0.130, -0.024, 0.978, 15:18:17.690, 1541665097690
96, 162453.25, 162410.52, 162606.45, 162481.47, 162607.30, -187500.02, -187500.02, -185397.67, 0.000, 0.000, 0.000, 15:18:17.690, 1541665097690
97, 162376.59, 162333.78, 162529.77, 162404.70, 162530.55, -187500.02, -187500.02, -185348.66, 0.000, 0.000, 0.000, 15:18:17.690, 1541665097690
98, 162342.84, 162300.02, 162495.91, 162370.89, 162496.73, -187500.02, -187500.02, -185332.97, 0.000, 0.000, 0.000, 15:18:17.690, 1541665097690
99, 162376.44, 162333.63, 162529.45, 162404.48, 162530.34, -187500.02, -187500.02, -185373.50, 0.000, 0.000, 0.000, 15:18:17.690, 1541665097690
100, 162407.86, 162365.09, 162561.06, 162435.91, 162561.89, -187500.02, -187500.02, -185414.11, 0.000, 0.000, 0.000, 15:18:17.690, 1541665097690
101, 162371.84, 162329.16, 162525.14, 162399.97, 162525.86, -187500.02, -187500.02, -185400.03, 0.000, 0.000, 0.000, 15:18:17.691, 1541665097691
102, 162295.08, 162252.38, 162448.38, 162323.30, 162449.03, -187500.02, -187500.02, -185351.19, 0.000, 0.000, 0.000, 15:18:17.691, 1541665097691
103, 162259.94, 162217.22, 162413.16, 162288.19, 162413.80, -187500.02, -187500.02, -185334.41, 0.000, 0.000, 0.000, 15:18:17.691, 1541665097691
104, 162292.61, 162249.94, 162445.77, 162320.70, 162446.45, -187500.02, -187500.02, -185374.00, 0.000, 0.000, 0.000, 15:18:17.691, 1541665097691
105, 162326.44, 162283.73, 162479.66, 162354.55, 162480.34, -187500.02, -187500.02, -185416.78, 0.132, -0.026, 0.982, 15:18:17.691, 1541665097691
106, 162290.33, 162247.64, 162443.59, 162318.52, 162444.34, -187500.02, -187500.02, -185402.28, 0.000, 0.000, 0.000, 15:18:17.691, 1541665097691
107, 162213.41, 162170.78, 162366.64, 162241.61, 162367.41, -187500.02, -187500.02, -185353.16, 0.000, 0.000, 0.000, 15:18:17.691, 1541665097691
108, 162178.98, 162136.22, 162332.06, 162207.08, 162332.78, -187500.02, -187500.02, -185337.17, 0.000, 0.000, 0.000, 15:18:17.691, 1541665097691
109, 162211.05, 162168.22, 162364.20, 162239.23, 162364.86, -187500.02, -187500.02, -185376.58, 0.000, 0.000, 0.000, 15:18:17.691, 1541665097691
110, 162242.17, 162199.50, 162395.39, 162270.44, 162396.13, -187500.02, -187500.02, -185416.59, 0.000, 0.000, 0.000, 15:18:17.691, 1541665097691
111, 162208.25, 162165.45, 162361.36, 162236.41, 162362.02, -187500.02, -187500.02, -185403.91, 0.000, 0.000, 0.000, 15:18:17.691, 1541665097691
112, 162130.47, 162087.64, 162283.58, 162158.69, 162284.14, -187500.02, -187500.02, -185353.95, 0.000, 0.000, 0.000, 15:18:17.691, 1541665097691
113, 162094.98, 162052.09, 162248.05, 162123.19, 162248.64, -187500.02, -187500.02, -185337.22, 0.000, 0.000, 0.000, 15:18:17.691, 1541665097691
114, 162123.88, 162081.14, 162277.03, 162152.09, 162277.69, -187500.02, -187500.02, -185373.42, 0.000, 0.000, 0.000, 15:18:17.691, 1541665097691
115, 162156.73, 162113.98, 162309.83, 162184.88, 162310.58, -187500.02, -187500.02, -185414.83, 0.134, -0.022, 0.984, 15:18:17.691, 1541665097691
116, 162126.41, 162083.73, 162279.66, 162154.61, 162280.25, -187500.02, -187500.02, -185405.84, 0.000, 0.000, 0.000, 15:18:17.691, 1541665097691
117, 162049.05, 162006.27, 162202.14, 162077.25, 162202.73, -187500.02, -187500.02, -185356.34, 0.000, 0.000, 0.000, 15:18:17.691, 1541665097691
118, 162009.17, 161966.34, 162162.19, 162037.36, 162162.86, -187500.02, -187500.02, -185335.56, 0.000, 0.000, 0.000, 15:18:17.691, 1541665097691
119, 162035.34, 161992.55, 162188.34, 162063.64, 162189.08, -187500.02, -187500.02, -185369.14, 0.000, 0.000, 0.000, 15:18:17.691, 1541665097691
120, 162068.81, 162026.00, 162221.89, 162097.14, 162222.50, -187500.02, -187500.02, -185411.00, 0.000, 0.000, 0.000, 15:18:17.691, 1541665097691
121, 162038.23, 161995.47, 162191.27, 162066.44, 162191.92, -187500.02, -187500.02, -185401.17, 0.000, 0.000, 0.000, 15:18:17.691, 1541665097691
122, 161962.14, 161919.27, 162115.00, 161990.31, 162115.75, -187500.02, -187500.02, -185352.91, 0.000, 0.000, 0.000, 15:18:17.691, 1541665097691
123, 161923.05, 161880.25, 162075.89, 161951.22, 162076.58, -187500.02, -187500.02, -185333.22, 0.000, 0.000, 0.000, 15:18:17.691, 1541665097691
124, 161949.31, 161906.52, 162102.25, 161977.52, 162102.89, -187500.02, -187500.02, -185367.06, 0.000, 0.000, 0.000, 15:18:17.691, 1541665097691
125, 161984.14, 161941.36, 162137.20, 162012.44, 162137.89, -187500.02, -187500.02, -185410.31, 0.126, -0.022, 0.980, 15:18:17.692, 1541665097692
126, 161956.88, 161914.05, 162109.84, 161985.05, 162110.38, -187500.02, -187500.02, -185403.67, 0.000, 0.000, 0.000, 15:18:17.692, 1541665097692
127, 161882.25, 161839.55, 162035.19, 161910.47, 162035.81, -187500.02, -187500.02, -185356.95, 0.000, 0.000, 0.000, 15:18:17.692, 1541665097692
128, 161841.08, 161798.38, 161994.06, 161869.39, 161994.69, -187500.02, -187500.02, -185335.50, 0.000, 0.000, 0.000, 15:18:17.692, 1541665097692
129, 161868.41, 161825.58, 162021.36, 161896.58, 162021.94, -187500.02, -187500.02, -185370.20, 0.000, 0.000, 0.000, 15:18:17.692, 1541665097692
130, 161902.69, 161859.95, 162055.70, 161930.84, 162056.33, -187500.02, -187500.02, -185412.55, 0.000, 0.000, 0.000, 15:18:17.692, 1541665097692
131, 161873.72, 161830.98, 162026.67, 161901.97, 162027.25, -187500.02, -187500.02, -185404.16, 0.000, 0.000, 0.000, 15:18:17.692, 1541665097692
132, 161798.02, 161755.19, 161950.83, 161826.16, 161951.44, -187500.02, -187500.02, -185356.27, 0.000, 0.000, 0.000, 15:18:17.692, 1541665097692
133, 161754.55, 161711.78, 161907.42, 161782.70, 161908.03, -187500.02, -187500.02, -185332.75, 0.000, 0.000, 0.000, 15:18:17.692, 1541665097692
134, 161783.22, 161740.64, 161936.23, 161811.61, 161936.94, -187500.02, -187500.02, -185369.30, 0.000, 0.000, 0.000, 15:18:17.692, 1541665097692
135, 161818.53, 161775.84, 161971.52, 161846.81, 161972.20, -187500.02, -187500.02, -185412.55, 0.128, -0.024, 0.980, 15:18:17.692, 1541665097692
136, 161790.48, 161747.80, 161943.44, 161818.69, 161944.02, -187500.02, -187500.02, -185404.72, 0.000, 0.000, 0.000, 15:18:17.692, 1541665097692
137, 161714.38, 161671.61, 161867.28, 161742.58, 161867.80, -187500.02, -187500.02, -185356.47, 0.000, 0.000, 0.000, 15:18:17.692, 1541665097692
138, 161670.25, 161627.50, 161823.05, 161698.44, 161823.56, -187500.02, -187500.02, -185332.33, 0.000, 0.000, 0.000, 15:18:17.692, 1541665097692
139, 161693.44, 161650.73, 161846.25, 161721.70, 161846.81, -187500.02, -187500.02, -185363.45, 0.000, 0.000, 0.000, 15:18:17.692, 1541665097692
140, 161731.20, 161688.48, 161884.14, 161759.48, 161884.66, -187500.02, -187500.02, -185409.06, 0.000, 0.000, 0.000, 15:18:17.692, 1541665097692
141, 161707.33, 161664.53, 161860.20, 161735.50, 161860.67, -187500.02, -187500.02, -185405.28, 0.000, 0.000, 0.000, 15:18:17.692, 1541665097692
142, 161631.19, 161588.27, 161783.94, 161659.39, 161784.45, -187500.02, -187500.02, -185357.09, 0.000, 0.000, 0.000, 15:18:17.692, 1541665097692
143, 161586.81, 161543.86, 161739.61, 161615.05, 161740.02, -187500.02, -187500.02, -185332.97, 0.000, 0.000, 0.000, 15:18:17.692, 1541665097692
144, 161609.19, 161566.27, 161762.05, 161637.44, 161762.39, -187500.02, -187500.02, -185363.33, 0.128, -0.022, 0.978, 15:18:17.692, 1541665097692
145, 161645.89, 161603.13, 161798.78, 161674.14, 161799.16, -187500.02, -187500.02, -185407.69, 0.000, 0.000, 0.000, 15:18:17.692, 1541665097692
146, 161622.13, 161579.38, 161774.97, 161650.36, 161775.39, -187500.02, -187500.02, -185403.67, 0.000, 0.000, 0.000, 15:18:17.692, 1541665097692
147, 161546.02, 161503.22, 161698.91, 161574.19, 161699.28, -187500.02, -187500.02, -185355.41, 0.000, 0.000, 0.000, 15:18:17.692, 1541665097692
148, 161501.23, 161458.47, 161654.14, 161529.55, 161654.45, -187500.02, -187500.02, -185331.06, 0.000, 0.000, 0.000, 15:18:17.692, 1541665097692
149, 161527.20, 161484.39, 161680.00, 161555.52, 161680.42, -187500.02, -187500.02, -185365.33, 0.000, 0.000, 0.000, 15:18:17.693, 1541665097693
150, 161566.77, 161524.00, 161719.58, 161595.08, 161720.14, -187500.02, -187500.02, -185412.61, 0.000, 0.000, 0.000, 15:18:17.693, 1541665097693
151, 161546.13, 161503.34, 161699.02, 161574.41, 161699.52, -187500.02, -187500.02, -185411.67, 0.000, 0.000, 0.000, 15:18:17.693, 1541665097693
152, 161469.91, 161427.00, 161622.70, 161498.08, 161623.14, -187500.02, -187500.02, -185363.17, 0.000, 0.000, 0.000, 15:18:17.693, 1541665097693
153, 161420.47, 161377.59, 161573.27, 161448.72, 161573.73, -187500.02, -187500.02, -185334.38, 0.000, 0.000, 0.000, 15:18:17.693, 1541665097693
154, 161443.77, 161400.95, 161596.67, 161472.11, 161597.08, -187500.02, -187500.02, -185366.11, 0.128, -0.022, 0.980, 15:18:17.693, 1541665097693
155, 161481.02, 161438.27, 161633.92, 161509.31, 161634.28, -187500.02, -187500.02, -185410.70, 0.000, 0.000, 0.000, 15:18:17.693, 1541665097693
156, 161455.55, 161412.67, 161608.31, 161483.77, 161608.67, -187500.02, -187500.02, -185404.42, 0.000, 0.000, 0.000, 15:18:17.693, 1541665097693
157, 161378.78, 161335.95, 161531.45, 161406.95, 161531.89, -187500.02, -187500.02, -185355.56, 0.000, 0.000, 0.000, 15:18:17.693, 1541665097693
158, 161328.53, 161285.67, 161481.27, 161356.67, 161481.63, -187500.02, -187500.02, -185326.33, 0.000, 0.000, 0.000, 15:18:17.693, 1541665097693
159, 161350.27, 161307.42, 161503.06, 161378.38, 161503.28, -187500.02, -187500.02, -185356.64, 0.000, 0.000, 0.000, 15:18:17.693, 1541665097693
160, 161388.03, 161345.22, 161540.88, 161416.27, 161541.11, -187500.02, -187500.02, -185401.66, 0.000, 0.000, 0.000, 15:18:17.693, 1541665097693
161, 161366.83, 161323.91, 161519.59, 161394.94, 161519.91, -187500.02, -187500.02, -185399.33, 0.000, 0.000, 0.000, 15:18:17.693, 1541665097693
162, 161292.89, 161250.06, 161445.61, 161321.11, 161446.00, -187500.02, -187500.02, -185353.20, 0.000, 0.000, 0.000, 15:18:17.693, 1541665097693
163, 161245.14, 161202.27, 161397.89, 161273.50, 161398.14, -187500.02, -187500.02, -185326.55, 0.000, 0.000, 0.000, 15:18:17.693, 1541665097693
164, 161266.78, 161223.94, 161419.48, 161295.08, 161419.84, -187500.02, -187500.02, -185356.84, 0.124, -0.022, 0.978, 15:18:17.693, 1541665097693
165, 161306.25, 161263.50, 161459.08, 161334.55, 161459.36, -187500.02, -187500.02, -185403.73, 0.000, 0.000, 0.000, 15:18:17.693, 1541665097693
166, 161285.11, 161242.34, 161437.97, 161313.50, 161438.27, -187500.02, -187500.02, -185401.52, 0.000, 0.000, 0.000, 15:18:17.693, 1541665097693
167, 161207.09, 161164.30, 161359.83, 161235.44, 161360.09, -187500.02, -187500.02, -185351.19, 0.000, 0.000, 0.000, 15:18:17.693, 1541665097693
168, 161155.38, 161112.55, 161308.06, 161183.63, 161308.33, -187500.02, -187500.02, -185320.92, 0.000, 0.000, 0.000, 15:18:17.693, 1541665097693
169, 161178.56, 161135.75, 161331.25, 161206.83, 161331.64, -187500.02, -187500.02, -185352.80, 0.000, 0.000, 0.000, 15:18:17.693, 1541665097693
170, 161220.59, 161177.84, 161373.36, 161248.97, 161373.73, -187500.02, -187500.02, -185401.83, 0.000, 0.000, 0.000, 15:18:17.693, 1541665097693
171, 161202.47, 161159.77, 161355.36, 161230.86, 161355.50, -187500.02, -187500.02, -185402.33, 0.000, 0.000, 0.000, 15:18:17.693, 1541665097693
172, 161126.36, 161083.66, 161279.19, 161154.78, 161279.36, -187500.02, -187500.02, -185354.00, 0.000, 0.000, 0.000, 15:18:17.694, 1541665097694
173, 161073.39, 161030.59, 161226.08, 161101.75, 161226.34, -187500.02, -187500.02, -185322.73, 0.000, 0.000, 0.000, 15:18:17.694, 1541665097694
174, 161093.13, 161050.28, 161245.84, 161121.52, 161246.06, -187500.02, -187500.02, -185351.45, 0.124, -0.024, 0.978, 15:18:17.694, 1541665097694
175, 161135.42, 161092.50, 161288.13, 161163.69, 161288.38, -187500.02, -187500.02, -185400.63, 0.000, 0.000, 0.000, 15:18:17.694, 1541665097694
176, 161119.06, 161076.08, 161271.72, 161147.38, 161271.98, -187500.02, -187500.02, -185402.59, 0.000, 0.000, 0.000, 15:18:17.694, 1541665097694
177, 161047.98, 161005.06, 161200.64, 161076.30, 161200.84, -187500.02, -187500.02, -185359.13, 0.000, 0.000, 0.000, 15:18:17.694, 1541665097694
178, 160996.13, 160953.28, 161148.72, 161024.38, 161148.89, -187500.02, -187500.02, -185328.98, 0.000, 0.000, 0.000, 15:18:17.694, 1541665097694
179, 161012.63, 160969.70, 161165.30, 161040.83, 161165.34, -187500.02, -187500.02, -185354.66, 0.000, 0.000, 0.000, 15:18:17.694, 1541665097694
180, 161051.28, 161008.44, 161204.02, 161079.55, 161204.08, -187500.02, -187500.02, -185400.19, 0.000, 0.000, 0.000, 15:18:17.694, 1541665097694
181, 161035.42, 160992.55, 161188.02, 161063.67, 161188.17, -187500.02, -187500.02, -185402.53, 0.000, 0.000, 0.000, 15:18:17.694, 1541665097694
182, 160961.83, 160919.08, 161114.50, 160990.20, 161114.63, -187500.02, -187500.02, -185356.75, 0.000, 0.000, 0.000, 15:18:17.694, 1541665097694
183, 160907.16, 160864.58, 161059.92, 160935.70, 161060.08, -187500.02, -187500.02, -185324.31, 0.000, 0.000, 0.000, 15:18:17.694, 1541665097694
184, 160922.14, 160879.41, 161074.72, 160950.50, 161074.91, -187500.02, -187500.02, -185348.42, 0.124, -0.030, 0.982, 15:18:17.694, 1541665097694
185, 160966.17, 160923.48, 161118.83, 160994.48, 161118.98, -187500.02, -187500.02, -185399.00, 0.000, 0.000, 0.000, 15:18:17.694, 1541665097694
186, 160953.86, 160911.08, 161106.47, 160982.22, 161106.63, -187500.02, -187500.02, -185404.52, 0.000, 0.000, 0.000, 15:18:17.694, 1541665097694
187, 160880.44, 160837.56, 161032.91, 160908.75, 161033.16, -187500.02, -187500.02, -185358.70, 0.000, 0.000, 0.000, 15:18:17.694, 1541665097694
188, 160824.95, 160782.08, 160977.45, 160853.23, 160977.69, -187500.02, -187500.02, -185325.50, 0.000, 0.000, 0.000, 15:18:17.695, 1541665097695
189, 160838.81, 160796.00, 160991.39, 160867.09, 160991.55, -187500.02, -187500.02, -185349.06, 0.000, 0.000, 0.000, 15:18:17.695, 1541665097695
190, 160881.34, 160838.63, 161034.05, 160909.78, 161034.17, -187500.02, -187500.02, -185398.38, 0.000, 0.000, 0.000, 15:18:17.695, 1541665097695
191, 160870.22, 160827.45, 161022.88, 160898.61, 161022.98, -187500.02, -187500.02, -185404.98, 0.000, 0.000, 0.000, 15:18:17.695, 1541665097695
192, 160797.33, 160754.44, 160949.86, 160825.67, 160949.94, -187500.02, -187500.02, -185359.39, 0.000, 0.000, 0.000, 15:18:17.695, 1541665097695
193, 160740.22, 160697.50, 160892.86, 160768.66, 160892.92, -187500.02, -187500.02, -185324.66, 0.000, 0.000, 0.000, 15:18:17.695, 1541665097695
194, 160755.58, 160712.91, 160908.23, 160784.05, 160908.33, -187500.02, -187500.02, -185349.73, 0.126, -0.028, 0.980, 15:18:17.695, 1541665097695
195, 160796.28, 160753.50, 160948.89, 160824.69, 160949.00, -187500.02, -187500.02, -185396.84, 0.000, 0.000, 0.000, 15:18:17.695, 1541665097695
196, 160784.78, 160741.97, 160937.31, 160813.11, 160937.42, -187500.02, -187500.02, -185402.70, 0.000, 0.000, 0.000, 15:18:17.695, 1541665097695
197, 160712.39, 160669.55, 160864.81, 160740.69, 160864.94, -187500.02, -187500.02, -185357.80, 0.000, 0.000, 0.000, 15:18:17.695, 1541665097695
198, 160655.64, 160612.77, 160808.03, 160683.98, 160808.17, -187500.02, -187500.02, -185323.81, 0.000, 0.000, 0.000, 15:18:17.695, 1541665097695
199, 160669.08, 160626.14, 160821.44, 160697.33, 160821.47, -187500.02, -187500.02, -185347.00, 0.000, 0.000, 0.000, 15:18:17.695, 1541665097695
200, 160713.19, 160670.23, 160865.64, 160741.48, 160865.66, -187500.02, -187500.02, -185397.52, 0.000, 0.000, 0.000, 15:18:17.695, 1541665097695
201, 160704.55, 160661.61, 160857.05, 160732.86, 160857.09, -187500.02, -187500.02, -185406.06, 0.000, 0.000, 0.000, 15:18:17.695, 1541665097695
202, 160631.34, 160588.42, 160783.89, 160659.61, 160783.94, -187500.02, -187500.02, -185360.23, 0.000, 0.000, 0.000, 15:18:17.695, 1541665097695
203, 160574.28, 160531.34, 160726.77, 160602.63, 160726.83, -187500.02, -187500.02, -185326.05, 0.126, -0.030, 0.980, 15:18:17.695, 1541665097695
204, 160587.08, 160544.17, 160739.55, 160615.52, 160739.64, -187500.02, -187500.02, -185348.97, 0.000, 0.000, 0.000, 15:18:17.695, 1541665097695
205, 160629.17, 160586.27, 160781.66, 160657.61, 160781.70, -187500.02, -187500.02, -185397.56, 0.000, 0.000, 0.000, 15:18:17.695, 1541665097695
206, 160620.48, 160577.56, 160772.94, 160648.91, 160772.97, -187500.02, -187500.02, -185405.81, 0.000, 0.000, 0.000, 15:18:17.695, 1541665097695
207, 160548.13, 160505.28, 160700.50, 160576.56, 160700.56, -187500.02, -187500.02, -185360.64, 0.000, 0.000, 0.000, 15:18:17.695, 1541665097695
208, 160490.08, 160447.16, 160642.42, 160518.47, 160642.42, -187500.02, -187500.02, -185325.61, 0.000, 0.000, 0.000, 15:18:17.696, 1541665097696
209, 160501.55, 160458.58, 160653.94, 160529.95, 160653.92, -187500.02, -187500.02, -185347.19, 0.000, 0.000, 0.000, 15:18:17.696, 1541665097696
210, 160542.58, 160499.67, 160695.05, 160571.00, 160695.02, -187500.02, -187500.02, -185394.45, 0.000, 0.000, 0.000, 15:18:18.171, 1541665098171
211, 160536.39, 160493.55, 160688.81, 160564.73, 160688.81, -187500.02, -187500.02, -185404.97, 0.000, 0.000, 0.000, 15:18:18.171, 1541665098171
212, 160465.63, 160422.69, 160617.97, 160493.92, 160617.97, -187500.02, -187500.02, -185361.45, 0.000, 0.000, 0.000, 15:18:18.171, 1541665098171
213, 160404.41, 160361.52, 160556.75, 160432.77, 160556.80, -187500.02, -187500.02, -185323.61, 0.130, -0.028, 0.984, 15:18:18.171, 1541665098171
214, 160414.52, 160371.73, 160566.97, 160442.97, 160566.92, -187500.02, -187500.02, -185344.30, 0.000, 0.000, 0.000, 15:18:18.171, 1541665098171
215, 160456.70, 160413.84, 160609.27, 160485.14, 160609.14, -187500.02, -187500.02, -185392.61, 0.000, 0.000, 0.000, 15:18:18.171, 1541665098171
216, 160452.50, 160409.61, 160604.98, 160480.89, 160604.86, -187500.02, -187500.02, -185404.88, 0.000, 0.000, 0.000, 15:18:18.171, 1541665098171
217, 160383.34, 160340.48, 160535.75, 160411.72, 160535.63, -187500.02, -187500.02, -185362.73, 0.000, 0.000, 0.000, 15:18:18.171, 1541665098171
218, 160321.64, 160278.72, 160473.98, 160349.94, 160473.81, -187500.02, -187500.02, -185324.44, 0.000, 0.000, 0.000, 15:18:18.171, 1541665098171
219, 160328.91, 160285.94, 160481.23, 160357.13, 160481.14, -187500.02, -187500.02, -185342.27, 0.000, 0.000, 0.000, 15:18:18.171, 1541665098171
220, 160370.61, 160327.84, 160523.14, 160399.05, 160523.05, -187500.02, -187500.02, -185390.14, 0.000, 0.000, 0.000, 15:18:18.172, 1541665098172
221, 160363.92, 160321.09, 160516.41, 160392.48, 160516.34, -187500.02, -187500.02, -185399.73, 0.000, 0.000, 0.000, 15:18:18.172, 1541665098172
222, 160294.77, 160251.92, 160447.19, 160323.30, 160447.05, -187500.02, -187500.02, -185357.63, 0.000, 0.000, 0.000, 15:18:18.172, 1541665098172
223, 160233.30, 160190.45, 160385.67, 160261.72, 160385.52, -187500.02, -187500.02, -185319.89, 0.130, -0.024, 0.980, 15:18:18.172, 1541665098172
224, 160241.95, 160199.00, 160394.23, 160270.30, 160394.17, -187500.02, -187500.02, -185339.19, 0.000, 0.000, 0.000, 15:18:18.172, 1541665098172
225, 160287.22, 160244.30, 160439.55, 160315.59, 160439.45, -187500.02, -187500.02, -185390.44, 0.000, 0.000, 0.000, 15:18:18.172, 1541665098172
226, 160284.17, 160241.28, 160436.56, 160312.58, 160436.41, -187500.02, -187500.02, -185403.48, 0.000, 0.000, 0.000, 15:18:18.172, 1541665098172
227, 160214.30, 160171.44, 160366.63, 160242.59, 160366.55, -187500.02, -187500.02, -185360.39, 0.000, 0.000, 0.000, 15:18:18.172, 1541665098172
228, 160151.70, 160108.78, 160303.94, 160180.00, 160303.86, -187500.02, -187500.02, -185321.69, 0.000, 0.000, 0.000, 15:18:18.172, 1541665098172
229, 160159.09, 160116.25, 160311.38, 160187.53, 160311.25, -187500.02, -187500.02, -185340.22, 0.000, 0.000, 0.000, 15:18:18.172, 1541665098172
230, 160203.31, 160160.59, 160355.75, 160231.81, 160355.56, -187500.02, -187500.02, -185390.55, 0.000, 0.000, 0.000, 15:18:18.172, 1541665098172
231, 160200.16, 160157.34, 160352.59, 160228.63, 160352.38, -187500.02, -187500.02, -185403.27, 0.000, 0.000, 0.000, 15:18:18.172, 1541665098172
232, 160134.13, 160091.30, 160286.45, 160162.56, 160286.17, -187500.02, -187500.02, -185363.95, 0.000, 0.000, 0.000, 15:18:18.172, 1541665098172
233, 160069.02, 160026.17, 160221.36, 160097.47, 160221.05, -187500.02, -187500.02, -185322.70, 0.132, -0.028, 0.976, 15:18:18.172, 1541665098172
234, 160073.70, 160030.75, 160226.00, 160102.17, 160225.72, -187500.02, -187500.02, -185338.52, 0.000, 0.000, 0.000, 15:18:18.172, 1541665098172
235, 160118.34, 160075.45, 160270.66, 160146.73, 160270.34, -187500.02, -187500.02, -185389.09, 0.000, 0.000, 0.000, 15:18:18.172, 1541665098172
236, 160116.20, 160073.28, 160268.39, 160144.52, 160268.13, -187500.02, -187500.02, -185402.42, 0.000, 0.000, 0.000, 15:18:18.172, 1541665098172
237, 160049.73, 160006.80, 160201.97, 160078.11, 160201.67, -187500.02, -187500.02, -185362.83, 0.000, 0.000, 0.000, 15:18:18.172, 1541665098172
238, 159983.95, 159941.05, 160136.23, 160012.38, 160135.94, -187500.02, -187500.02, -185321.34, 0.000, 0.000, 0.000, 15:18:18.173, 1541665098173
239, 159987.36, 159944.58, 160139.66, 160015.89, 160139.33, -187500.02, -187500.02, -185336.17, 0.000, 0.000, 0.000, 15:18:18.173, 1541665098173
240, 160030.69, 159987.83, 160182.94, 160059.20, 160182.59, -187500.02, -187500.02, -185385.34, 0.000, 0.000, 0.000, 15:18:18.173, 1541665098173
241, 160031.47, 159988.63, 160183.80, 160059.98, 160183.48, -187500.02, -187500.02, -185401.28, 0.000, 0.000, 0.000, 15:18:18.173, 1541665098173
242, 159968.03, 159925.14, 160120.34, 159996.48, 160120.03, -187500.02, -187500.02, -185364.39, 0.000, 0.000, 0.000, 15:18:18.173, 1541665098173
243, 159902.72, 159859.77, 160054.89, 159931.16, 160054.58, -187500.02, -187500.02, -185323.53, 0.130, -0.026, 0.984, 15:18:18.173, 1541665098173
244, 159905.25, 159862.28, 160057.42, 159933.72, 160057.11, -187500.02, -187500.02, -185337.69, 0.000, 0.000, 0.000, 15:18:18.173, 1541665098173
245, 159950.44, 159907.58, 160102.72, 159978.94, 160102.34, -187500.02, -187500.02, -185388.80, 0.000, 0.000, 0.000, 15:18:18.173, 1541665098173
246, 159951.83, 159909.09, 160104.22, 159980.42, 160103.81, -187500.02, -187500.02, -185405.41, 0.000, 0.000, 0.000, 15:18:18.173, 1541665098173
247, 159887.92, 159845.09, 160040.19, 159916.41, 160039.73, -187500.02, -187500.02, -185367.91, 0.000, 0.000, 0.000, 15:18:18.173, 1541665098173
248, 159820.52, 159777.64, 159972.72, 159848.94, 159972.30, -187500.02, -187500.02, -185324.98, 0.000, 0.000, 0.000, 15:18:18.173, 1541665098173
249, 159821.97, 159778.94, 159974.09, 159850.31, 159973.69, -187500.02, -187500.02, -185338.02, 0.000, 0.000, 0.000, 15:18:18.173, 1541665098173
250, 159867.63, 159824.67, 160019.89, 159896.13, 160019.48, -187500.02, -187500.02, -185389.55, 0.000, 0.000, 0.000, 15:18:18.173, 1541665098173
251, 159870.17, 159827.19, 160022.45, 159898.77, 160022.03, -187500.02, -187500.02, -185406.91, 0.000, 0.000, 0.000, 15:18:18.173, 1541665098173
252, 159803.77, 159760.78, 159955.84, 159832.25, 159955.45, -187500.02, -187500.02, -185366.86, 0.000, 0.000, 0.000, 15:18:18.173, 1541665098173
253, 159737.00, 159694.02, 159889.08, 159765.45, 159888.61, -187500.02, -187500.02, -185324.94, 0.132, -0.020, 0.980, 15:18:18.173, 1541665098173
254, 159736.95, 159693.94, 159889.11, 159765.39, 159888.59, -187500.02, -187500.02, -185337.03, 0.000, 0.000, 0.000, 15:18:18.173, 1541665098173
255, 159778.44, 159735.53, 159930.69, 159806.94, 159930.09, -187500.02, -187500.02, -185384.38, 0.000, 0.000, 0.000, 15:18:18.174, 1541665098174
0, 159781.28, 159738.33, 159933.36, 159809.80, 159932.89, -187500.02, -187500.02, -185401.77, 0.000, 0.000, 0.000, 15:18:18.174, 1541665098174
1, 159718.98, 159676.13, 159871.16, 159747.64, 159870.80, -187500.02, -187500.02, -185365.72, 0.000, 0.000, 0.000, 15:18:18.174, 1541665098174
2, 159648.95, 159606.05, 159801.13, 159677.59, 159800.70, -187500.02, -187500.02, -185320.66, 0.000, 0.000, 0.000, 15:18:18.174, 1541665098174
3, 159647.08, 159604.17, 159799.20, 159675.72, 159798.77, -187500.02, -187500.02, -185330.95, 0.000, 0.000, 0.000, 15:18:18.174, 1541665098174
4, 159690.78, 159647.84, 159842.89, 159719.23, 159842.39, -187500.02, -187500.02, -185380.36, 0.000, 0.000, 0.000, 15:18:18.174, 1541665098174
5, 159697.48, 159654.55, 159849.59, 159725.97, 159849.14, -187500.02, -187500.02, -185401.55, 0.000, 0.000, 0.000, 15:18:18.174, 1541665098174
6, 159637.06, 159594.11, 159789.20, 159665.50, 159788.55, -187500.02, -187500.02, -185367.23, 0.130, -0.024, 0.986, 15:18:18.174, 1541665098174
7, 159567.38, 159524.44, 159719.48, 159595.89, 159718.92, -187500.02, -187500.02, -185322.59, 0.000, 0.000, 0.000, 15:18:18.174, 1541665098174
8, 159565.34, 159522.36, 159717.48, 159593.81, 159716.95, -187500.02, -187500.02, -185332.98, 0.000, 0.000, 0.000, 15:18:18.174, 1541665098174
9, 159609.20, 159566.17, 159761.39, 159637.70, 159760.88, -187500.02, -187500.02, -185382.48, 0.000, 0.000, 0.000, 15:18:18.174, 1541665098174
10, 159615.39, 159572.42, 159767.61, 159643.94, 159766.98, -187500.02, -187500.02, -185402.73, 0.000, 0.000, 0.000, 15:18:18.174, 1541665098174
11, 159551.80, 159508.95, 159703.92, 159580.36, 159703.36, -187500.02, -187500.02, -185365.16, 0.000, 0.000, 0.000, 15:18:18.174, 1541665098174
12, 159482.11, 159439.25, 159634.25, 159510.73, 159633.66, -187500.02, -187500.02, -185320.77, 0.000, 0.000, 0.000, 15:18:18.174, 1541665098174
13, 159476.88, 159434.00, 159629.06, 159505.48, 159628.47, -187500.02, -187500.02, -185328.30, 0.000, 0.000, 0.000, 15:18:18.174, 1541665098174
14, 159518.88, 159475.95, 159671.00, 159547.38, 159670.44, -187500.02, -187500.02, -185375.91, 0.000, 0.000, 0.000, 15:18:18.174, 1541665098174
15, 159527.45, 159484.56, 159679.58, 159555.89, 159678.94, -187500.02, -187500.02, -185398.27, 0.000, 0.000, 0.000, 15:18:18.174, 1541665098174
16, 159469.25, 159426.34, 159621.33, 159497.78, 159620.70, -187500.02, -187500.02, -185365.92, 0.128, -0.028, 0.984, 15:18:18.175, 1541665098175
17, 159401.33, 159358.39, 159553.42, 159429.88, 159552.73, -187500.02, -187500.02, -185323.36, 0.000, 0.000, 0.000, 15:18:18.175, 1541665098175
18, 159396.39, 159353.41, 159548.44, 159424.95, 159547.75, -187500.02, -187500.02, -185331.27, 0.000, 0.000, 0.000, 15:18:18.175, 1541665098175
19, 159440.94, 159398.00, 159592.91, 159469.45, 159592.30, -187500.02, -187500.02, -185381.55, 0.000, 0.000, 0.000, 15:18:18.175, 1541665098175
20, 159450.34, 159407.45, 159602.36, 159478.94, 159601.84, -187500.02, -187500.02, -185404.66, 0.000, 0.000, 0.000, 15:18:18.175, 1541665098175
21, 159390.34, 159347.33, 159542.23, 159418.89, 159541.69, -187500.02, -187500.02, -185370.36, 0.000, 0.000, 0.000, 15:18:18.175, 1541665098175
22, 159322.92, 159279.98, 159474.84, 159351.58, 159474.28, -187500.02, -187500.02, -185328.64, 0.000, 0.000, 0.000, 15:18:18.175, 1541665098175
23, 159316.23, 159273.25, 159468.20, 159344.86, 159467.69, -187500.02, -187500.02, -185335.05, 0.000, 0.000, 0.000, 15:18:18.175, 1541665098175
24, 159359.64, 159316.66, 159511.63, 159388.20, 159511.13, -187500.02, -187500.02, -185384.02, 0.000, 0.000, 0.000, 15:18:18.175, 1541665098175
25, 159369.92, 159326.88, 159521.89, 159398.42, 159521.31, -187500.02, -187500.02, -185407.53, 0.000, 0.000, 0.000, 15:18:18.175, 1541665098175
26, 159309.22, 159266.19, 159461.11, 159337.78, 159460.61, -187500.02, -187500.02, -185372.48, 0.132, -0.026, 0.976, 15:18:18.175, 1541665098175
27, 159237.91, 159194.84, 159389.84, 159266.55, 159389.34, -187500.02, -187500.02, -185326.95, 0.000, 0.000, 0.000, 15:18:18.175, 1541665098175
28, 159231.56, 159188.47, 159383.42, 159260.06, 159382.86, -187500.02, -187500.02, -185333.89, 0.000, 0.000, 0.000, 15:18:18.175, 1541665098175
29, 159272.95, 159229.86, 159424.84, 159301.50, 159424.27, -187500.02, -187500.02, -185381.08, 0.000, 0.000, 0.000, 15:18:18.175, 1541665098175
30, 159280.36, 159237.27, 159432.27, 159308.91, 159431.70, -187500.02, -187500.02, -185401.67, 0.000, 0.000, 0.000, 15:18:18.175, 1541665098175
31, 159221.95, 159179.02, 159373.88, 159250.58, 159373.30, -187500.02, -187500.02, -185368.73, 0.000, 0.000, 0.000, 15:18:18.176, 1541665098176
32, 159152.39, 159109.53, 159304.31, 159181.14, 159303.78, -187500.02, -187500.02, -185325.17, 0.000, 0.000, 0.000, 15:18:18.176, 1541665098176
33, 159144.34, 159101.45, 159296.31, 159173.05, 159295.64, -187500.02, -187500.02, -185330.47, 0.000, 0.000, 0.000, 15:18:18.176, 1541665098176
34, 159185.67, 159142.78, 159337.59, 159214.33, 159336.97, -187500.02, -187500.02, -185377.45, 0.000, 0.000, 0.000, 15:18:18.176, 1541665098176
35, 159196.34, 159153.48, 159348.38, 159224.95, 159347.69, -187500.02, -187500.02, -185401.17, 0.000, 0.000, 0.000, 15:18:18.176, 1541665098176
36, 159138.36, 159095.36, 159290.28, 159166.91, 159289.64, -187500.02, -187500.02, -185368.47, 0.132, -0.024, 0.980, 15:18:18.176, 1541665098176
37, 159066.72, 159023.78, 159218.58, 159095.36, 159217.94, -187500.02, -187500.02, -185322.94, 0.000, 0.000, 0.000, 15:18:18.176, 1541665098176
38, 159059.44, 159016.47, 159211.27, 159088.06, 159210.64, -187500.02, -187500.02, -185329.34, 0.000, 0.000, 0.000, 15:18:18.176, 1541665098176
39, 159098.66, 159055.66, 159250.56, 159127.34, 159249.98, -187500.02, -187500.02, -185374.23, 0.000, 0.000, 0.000, 15:18:18.176, 1541665098176
40, 159111.30, 159068.38, 159263.19, 159140.03, 159262.66, -187500.02, -187500.02, -185399.69, 0.000, 0.000, 0.000, 15:18:18.176, 1541665098176
41, 159056.95, 159014.08, 159208.83, 159085.72, 159208.20, -187500.02, -187500.02, -185370.41, 0.000, 0.000, 0.000, 15:18:18.176, 1541665098176
42, 158984.13, 158941.22, 159135.91, 159012.72, 159135.25, -187500.02, -187500.02, -185323.63, 0.000, 0.000, 0.000, 15:18:18.176, 1541665098176
43, 158972.64, 158929.70, 159124.44, 159001.20, 159123.81, -187500.02, -187500.02, -185326.11, 0.000, 0.000, 0.000, 15:18:18.177, 1541665098177
44, 159014.42, 158971.48, 159166.30, 159043.08, 159165.61, -187500.02, -187500.02, -185373.61, 0.000, 0.000, 0.000, 15:18:18.177, 1541665098177
45, 159027.20, 158984.17, 159178.97, 159055.80, 159178.33, -187500.02, -187500.02, -185398.91, 0.000, 0.000, 0.000, 15:18:18.177, 1541665098177
46, 158971.39, 158928.41, 159123.25, 159000.06, 159122.58, -187500.02, -187500.02, -185368.08, 0.130, -0.024, 0.980, 15:18:18.177, 1541665098177
47, 158898.91, 158855.81, 159050.72, 158927.52, 159050.02, -187500.02, -187500.02, -185321.91, 0.000, 0.000, 0.000, 15:18:18.177, 1541665098177
48, 158886.13, 158843.09, 159037.94, 158914.77, 159037.28, -187500.02, -187500.02, -185323.33, 0.000, 0.000, 0.000, 15:18:18.178, 1541665098178
49, 158928.11, 158885.05, 159079.89, 158956.70, 159079.17, -187500.02, -187500.02, -185370.86, 0.000, 0.000, 0.000, 15:18:18.178, 1541665098178
50, 158943.55, 158900.56, 159095.42, 158972.13, 159094.59, -187500.02, -187500.02, -185398.53, 0.000, 0.000, 0.000, 15:18:18.178, 1541665098178
51, 158889.56, 158846.63, 159041.42, 158918.19, 159040.66, -187500.02, -187500.02, -185369.45, 0.000, 0.000, 0.000, 15:18:18.178, 1541665098178
52, 158817.70, 158774.78, 158969.58, 158846.33, 158968.75, -187500.02, -187500.02, -185324.16, 0.000, 0.000, 0.000, 15:18:18.178, 1541665098178
53, 158805.19, 158762.16, 158957.02, 158833.91, 158956.27, -187500.02, -187500.02, -185326.11, 0.000, 0.000, 0.000, 15:18:18.178, 1541665098178
