%OpenBCI Raw EEG Data
%Number of channels = 8
%Sample Rate = 250.0 Hz
%First Column = SampleIndex
%Last Column = Timestamp 
%Other Columns = EEG data in microvolts followed by Accel Data (in G) interleaved with Aux Data
0, 0.00, 0.00, 0.00, -16544.74, 0.00, 0.00, 0.00, 0.00, 0.000, 0.000, 0.000, 14:04:23.539, 1541747063539
1, 0.00, 0.00, 0.00, -35475.93, 0.00, 0.00, 0.00, 0.00, -0.036, 0.318, 0.962, 14:04:23.539, 1541747063539
2, 0.00, 0.00, 0.00, -20721.79, 0.00, 0.00, 0.00, 0.00, 0.000, 0.000, 0.000, 14:04:23.539, 1541747063539
3, 0.00, 0.00, 0.00, 6102.27, 0.00, 0.00, 0.00, 0.00, 0.000, 0.000, 0.000, 14:04:23.539, 1541747063539
4, 0.00, 0.00, 0.00, 10966.35, 0.00, 0.00, 0.00, 0.00, 0.000, 0.000, 0.000, 14:04:23.539, 1541747063539
5, 0.00, 0.00, 0.00, -16368.29, 0.00, 0.00, 0.00, 0.00, 0.000, 0.000, 0.000, 14:04:23.539, 1541747063539
6, 0.00, 0.00, 0.00, -35517.30, 0.00, 0.00, 0.00, 0.00, 0.000, 0.000, 0.000, 14:04:23.539, 1541747063539
7, 0.00, 0.00, 0.00, -20979.73, 0.00, 0.00, 0.00, 0.00, 0.000, 0.000, 0.000, 14:04:23.539, 1541747063539
8, 0.00, 0.00, 0.00, 5865.12, 0.00, 0.00, 0.00, 0.00, 0.000, 0.000, 0.000, 14:04:23.539, 1541747063539
9, 0.00, 0.00, 0.00, 10963.84, 0.00, 0.00, 0.00, 0.00, 0.000, 0.000, 0.000, 14:04:23.540, 1541747063540
10, 0.00, 0.00, 0.00, -16173.99, 0.00, 0.00, 0.00, 0.00, 0.000, 0.000, 0.000, 14:04:23.540, 1541747063540
11, 0.00, 0.00, 0.00, -35393.83, 0.00, 0.00, 0.00, 0.00, -0.028, 0.330, 0.960, 14:04:23.540, 1541747063540
12, 0.00, 0.00, 0.00, -21093.59, 0.00, 0.00, 0.00, 0.00, 0.000, 0.000, 0.000, 14:04:23.540, 1541747063540
13, 0.00, 0.00, 0.00, 5666.26, 0.00, 0.00, 0.00, 0.00, 0.000, 0.000, 0.000, 14:04:23.540, 1541747063540
14, 0.00, 0.00, 0.00, 11017.78, 0.00, 0.00, 0.00, 0.00, 0.000, 0.000, 0.000, 14:04:23.540, 1541747063540
15, 0.00, 0.00, 0.00, -15848.19, 0.00, 0.00, 0.00, 0.00, 0.000, 0.000, 0.000, 14:04:23.540, 1541747063540
16, 0.00, 0.00, 0.00, -35330.66, 0.00, 0.00, 0.00, 0.00, 0.000, 0.000, 0.000, 14:04:23.540, 1541747063540
17, 0.00, 0.00, 0.00, -21266.07, 0.00, 0.00, 0.00, 0.00, 0.000, 0.000, 0.000, 14:04:23.540, 1541747063540
18, 0.00, 0.00, 0.00, 5498.75, 0.00, 0.00, 0.00, 0.00, 0.000, 0.000, 0.000, 14:04:23.540, 1541747063540
19, 0.00, 0.00, 0.00, 11103.70, 0.00, 0.00, 0.00, 0.00, 0.000, 0.000, 0.000, 14:04:23.540, 1541747063540
20, 0.00, 0.00, 0.00, -15610.91, 0.00, 0.00, 0.00, 0.00, 0.000, 0.000, 0.000, 14:04:23.540, 1541747063540
21, 0.00, 0.00, 0.00, -35260.70, 0.00, 0.00, 0.00, 0.00, -0.026, 0.334, 0.952, 14:04:23.540, 1541747063540
22, 0.00, 0.00, 0.00, -21484.59, 0.00, 0.00, 0.00, 0.00, 0.000, 0.000, 0.000, 14:04:23.540, 1541747063540
23, 0.00, 0.00, 0.00, 5224.83, 0.00, 0.00, 0.00, 0.00, 0.000, 0.000, 0.000, 14:04:23.540, 1541747063540
24, 0.00, 0.00, 0.00, 11143.19, 0.00, 0.00, 0.00, 0.00, 0.000, 0.000, 0.000, 14:04:23.540, 1541747063540
25, 0.00, 0.00, 0.00, -15318.07, 0.00, 0.00, 0.00, 0.00, 0.000, 0.000, 0.000, 14:04:23.540, 1541747063540
26, 0.00, 0.00, 0.00, -35141.37, 0.00, 0.00, 0.00, 0.00, 0.000, 0.000, 0.000, 14:04:23.540, 1541747063540
27, 0.00, 0.00, 0.00, -21709.71, 0.00, 0.00, 0.00, 0.00, 0.000, 0.000, 0.000, 14:04:23.540, 1541747063540
28, 0.00, 0.00, 0.00, 4969.55, 0.00, 0.00, 0.00, 0.00, 0.000, 0.000, 0.000, 14:04:23.540, 1541747063540
29, 0.00, 0.00, 0.00, 11146.84, 0.00, 0.00, 0.00, 0.00, 0.000, 0.000, 0.000, 14:04:23.541, 1541747063541
30, 0.00, 0.00, 0.00, -15300.84, 0.00, 0.00, 0.00, 0.00, 0.000, 0.000, 0.000, 14:04:23.541, 1541747063541
31, 0.00, 0.00, 0.00, -35318.13, 0.00, 0.00, 0.00, 0.00, -0.028, 0.338, 0.950, 14:04:23.541, 1541747063541
32, 0.00, 0.00, 0.00, -21742.97, 0.00, 0.00, 0.00, 0.00, 0.000, 0.000, 0.000, 14:04:23.541, 1541747063541
33, 0.00, 0.00, 0.00, 5002.66, 0.00, 0.00, 0.00, 0.00, 0.000, 0.000, 0.000, 14:04:23.541, 1541747063541
34, 0.00, 0.00, 0.00, 11349.50, 0.00, 0.00, 0.00, 0.00, 0.000, 0.000, 0.000, 14:04:23.541, 1541747063541
35, 0.00, 0.00, 0.00, -14844.64, 0.00, 0.00, 0.00, 0.00, 0.000, 0.000, 0.000, 14:04:23.541, 1541747063541
36, 0.00, 0.00, 0.00, -35078.63, 0.00, 0.00, 0.00, 0.00, 0.000, 0.000, 0.000, 14:04:23.541, 1541747063541
37, 0.00, 0.00, 0.00, -21902.79, 0.00, 0.00, 0.00, 0.00, 0.000, 0.000, 0.000, 14:04:23.541, 1541747063541
38, 0.00, 0.00, 0.00, 4953.50, 0.00, 0.00, 0.00, 0.00, 0.000, 0.000, 0.000, 14:04:23.541, 1541747063541
39, 0.00, 0.00, 0.00, 11462.98, 0.00, 0.00, 0.00, 0.00, 0.000, 0.000, 0.000, 14:04:23.541, 1541747063541
40, 0.00, 0.00, 0.00, -14779.15, 0.00, 0.00, 0.00, 0.00, 0.000, 0.000, 0.000, 14:04:23.541, 1541747063541
41, 0.00, 0.00, 0.00, -35244.57, 0.00, 0.00, 0.00, 0.00, -0.026, 0.338, 0.946, 14:04:23.541, 1541747063541
42, 0.00, 0.00, 0.00, -22273.65, 0.00, 0.00, 0.00, 0.00, 0.000, 0.000, 0.000, 14:04:23.541, 1541747063541
43, 0.00, 0.00, 0.00, 4521.82, 0.00, 0.00, 0.00, 0.00, 0.000, 0.000, 0.000, 14:04:23.541, 1541747063541
44, 0.00, 0.00, 0.00, 11541.19, 0.00, 0.00, 0.00, 0.00, 0.000, 0.000, 0.000, 14:04:23.541, 1541747063541
45, 0.00, 0.00, 0.00, -14395.60, 0.00, 0.00, 0.00, 0.00, 0.000, 0.000, 0.000, 14:04:23.541, 1541747063541
46, 0.00, 0.00, 0.00, -35140.27, 0.00, 0.00, 0.00, 0.00, 0.000, 0.000, 0.000, 14:04:23.541, 1541747063541
47, 0.00, 0.00, 0.00, -22575.87, 0.00, 0.00, 0.00, 0.00, 0.000, 0.000, 0.000, 14:04:23.542, 1541747063542
48, 0.00, 0.00, 0.00, 4231.94, 0.00, 0.00, 0.00, 0.00, 0.000, 0.000, 0.000, 14:04:23.542, 1541747063542
49, 0.00, 0.00, 0.00, 11769.47, 0.00, 0.00, 0.00, 0.00, 0.000, 0.000, 0.000, 14:04:23.542, 1541747063542
50, 0.00, 0.00, 0.00, -13518.94, 0.00, 0.00, 0.00, 0.00, 0.000, 0.000, 0.000, 14:04:23.542, 1541747063542
51, 0.00, 0.00, 0.00, -34773.55, 0.00, 0.00, 0.00, 0.00, -0.032, 0.342, 0.950, 14:04:23.542, 1541747063542
52, 0.00, 0.00, 0.00, -22979.67, 0.00, 0.00, 0.00, 0.00, 0.000, 0.000, 0.000, 14:04:23.542, 1541747063542
53, 0.00, 0.00, 0.00, 3651.29, 0.00, 0.00, 0.00, 0.00, 0.000, 0.000, 0.000, 14:04:23.542, 1541747063542
54, 0.00, 0.00, 0.00, 11986.52, 0.00, 0.00, 0.00, 0.00, 0.000, 0.000, 0.000, 14:04:23.542, 1541747063542
55, 0.00, 0.00, 0.00, -12719.13, 0.00, 0.00, 0.00, 0.00, 0.000, 0.000, 0.000, 14:04:23.542, 1541747063542
56, 0.00, 0.00, 0.00, -34613.78, 0.00, 0.00, 0.00, 0.00, 0.000, 0.000, 0.000, 14:04:23.542, 1541747063542
57, 0.00, 0.00, 0.00, -23136.69, 0.00, 0.00, 0.00, 0.00, 0.000, 0.000, 0.000, 14:04:23.542, 1541747063542
58, 0.00, 0.00, 0.00, 3520.80, 0.00, 0.00, 0.00, 0.00, 0.000, 0.000, 0.000, 14:04:23.542, 1541747063542
59, 0.00, 0.00, 0.00, 11925.33, 0.00, 0.00, 0.00, 0.00, 0.000, 0.000, 0.000, 14:04:23.542, 1541747063542
60, 0.00, 0.00, 0.00, -13206.28, 0.00, 0.00, 0.00, 0.00, 0.000, 0.000, 0.000, 14:04:23.542, 1541747063542
61, 0.00, 0.00, 0.00, -35162.85, 0.00, 0.00, 0.00, 0.00, -0.028, 0.338, 0.950, 14:04:23.542, 1541747063542
62, 0.00, 0.00, 0.00, -23571.95, 0.00, 0.00, 0.00, 0.00, 0.000, 0.000, 0.000, 14:04:23.542, 1541747063542
63, 0.00, 0.00, 0.00, 3655.61, 0.00, 0.00, 0.00, 0.00, 0.000, 0.000, 0.000, 14:04:23.542, 1541747063542
64, 0.00, 0.00, 0.00, 12468.25, 0.00, 0.00, 0.00, 0.00, 0.000, 0.000, 0.000, 14:04:23.542, 1541747063542
65, 0.00, 0.00, 0.00, -12992.82, 0.00, 0.00, 0.00, 0.00, 0.000, 0.000, 0.000, 14:04:23.543, 1541747063543
66, 0.00, 0.00, 0.00, -35573.31, 0.00, 0.00, 0.00, 0.00, 0.000, 0.000, 0.000, 14:04:23.543, 1541747063543
67, 0.00, 0.00, 0.00, -23945.69, 0.00, 0.00, 0.00, 0.00, 0.000, 0.000, 0.000, 14:04:23.543, 1541747063543
68, 0.00, 0.00, 0.00, 3652.23, 0.00, 0.00, 0.00, 0.00, 0.000, 0.000, 0.000, 14:04:23.543, 1541747063543
69, 0.00, 0.00, 0.00, 12876.35, 0.00, 0.00, 0.00, 0.00, 0.000, 0.000, 0.000, 14:04:23.543, 1541747063543
70, 0.00, 0.00, 0.00, -12626.88, 0.00, 0.00, 0.00, 0.00, 0.000, 0.000, 0.000, 14:04:23.543, 1541747063543
71, 0.00, 0.00, 0.00, -35554.92, 0.00, 0.00, 0.00, 0.00, 0.000, 0.000, 0.000, 14:04:23.543, 1541747063543
72, 0.00, 0.00, 0.00, -24077.37, 0.00, 0.00, 0.00, 0.00, -0.028, 0.338, 0.954, 14:04:23.543, 1541747063543
73, 0.00, 0.00, 0.00, 3601.74, 0.00, 0.00, 0.00, 0.00, 0.000, 0.000, 0.000, 14:04:23.543, 1541747063543
74, 0.00, 0.00, 0.00, 12872.01, 0.00, 0.00, 0.00, 0.00, 0.000, 0.000, 0.000, 14:04:23.544, 1541747063544
75, 0.00, 0.00, 0.00, -12498.80, 0.00, 0.00, 0.00, 0.00, 0.000, 0.000, 0.000, 14:04:23.544, 1541747063544
76, 0.00, 0.00, 0.00, -35480.20, 0.00, 0.00, 0.00, 0.00, 0.000, 0.000, 0.000, 14:04:23.544, 1541747063544
77, 0.00, 0.00, 0.00, -24111.99, 0.00, 0.00, 0.00, 0.00, 0.000, 0.000, 0.000, 14:04:23.544, 1541747063544
78, 0.00, 0.00, 0.00, 3421.74, 0.00, 0.00, 0.00, 0.00, 0.000, 0.000, 0.000, 14:04:23.544, 1541747063544
79, 0.00, 0.00, 0.00, 12718.08, 0.00, 0.00, 0.00, 0.00, 0.000, 0.000, 0.000, 14:04:23.544, 1541747063544
80, 0.00, 0.00, 0.00, -12487.43, 0.00, 0.00, 0.00, 0.00, 0.000, 0.000, 0.000, 14:04:23.544, 1541747063544
81, 0.00, 0.00, 0.00, -35306.17, 0.00, 0.00, 0.00, 0.00, 0.000, 0.000, 0.000, 14:04:23.544, 1541747063544
82, 0.00, 0.00, 0.00, -23995.83, 0.00, 0.00, 0.00, 0.00, -0.026, 0.338, 0.962, 14:04:23.544, 1541747063544
83, 0.00, 0.00, 0.00, 3308.33, 0.00, 0.00, 0.00, 0.00, 0.000, 0.000, 0.000, 14:04:23.544, 1541747063544
84, 0.00, 0.00, 0.00, 12576.52, 0.00, 0.00, 0.00, 0.00, 0.000, 0.000, 0.000, 14:04:23.544, 1541747063544
85, 0.00, 0.00, 0.00, -12423.14, 0.00, 0.00, 0.00, 0.00, 0.000, 0.000, 0.000, 14:04:23.544, 1541747063544
86, 0.00, 0.00, 0.00, -35250.20, 0.00, 0.00, 0.00, 0.00, 0.000, 0.000, 0.000, 14:04:23.544, 1541747063544
87, 0.00, 0.00, 0.00, -24103.70, 0.00, 0.00, 0.00, 0.00, 0.000, 0.000, 0.000, 14:04:23.545, 1541747063545
88, 0.00, 0.00, 0.00, 3130.59, 0.00, 0.00, 0.00, 0.00, 0.000, 0.000, 0.000, 14:04:23.545, 1541747063545
89, 0.00, 0.00, 0.00, 12556.90, 0.00, 0.00, 0.00, 0.00, 0.000, 0.000, 0.000, 14:04:23.545, 1541747063545
90, 0.00, 0.00, 0.00, -12292.63, 0.00, 0.00, 0.00, 0.00, 0.000, 0.000, 0.000, 14:04:23.545, 1541747063545
91, 0.00, 0.00, 0.00, -35129.72, 0.00, 0.00, 0.00, 0.00, 0.000, 0.000, 0.000, 14:04:23.545, 1541747063545
92, 0.00, 0.00, 0.00, -24124.71, 0.00, 0.00, 0.00, 0.00, -0.024, 0.336, 0.956, 14:04:23.545, 1541747063545
93, 0.00, 0.00, 0.00, 2987.06, 0.00, 0.00, 0.00, 0.00, 0.000, 0.000, 0.000, 14:04:23.545, 1541747063545
94, 0.00, 0.00, 0.00, 12587.36, 0.00, 0.00, 0.00, 0.00, 0.000, 0.000, 0.000, 14:04:23.545, 1541747063545
95, 0.00, 0.00, 0.00, -12167.78, 0.00, 0.00, 0.00, 0.00, 0.000, 0.000, 0.000, 14:04:23.545, 1541747063545
96, 0.00, 0.00, 0.00, -35181.44, 0.00, 0.00, 0.00, 0.00, 0.000, 0.000, 0.000, 14:04:23.545, 1541747063545
97, 0.00, 0.00, 0.00, -24354.84, 0.00, 0.00, 0.00, 0.00, 0.000, 0.000, 0.000, 14:04:23.545, 1541747063545
98, 0.00, 0.00, 0.00, 2914.47, 0.00, 0.00, 0.00, 0.00, 0.000, 0.000, 0.000, 14:04:23.545, 1541747063545
99, 0.00, 0.00, 0.00, 12757.01, 0.00, 0.00, 0.00, 0.00, 0.000, 0.000, 0.000, 14:04:23.545, 1541747063545
100, 0.00, 0.00, 0.00, -11869.74, 0.00, 0.00, 0.00, 0.00, 0.000, 0.000, 0.000, 14:04:23.545, 1541747063545
101, 0.00, 0.00, 0.00, -35086.58, 0.00, 0.00, 0.00, 0.00, 0.000, 0.000, 0.000, 14:04:23.545, 1541747063545
102, 0.00, 0.00, 0.00, -24535.78, 0.00, 0.00, 0.00, 0.00, -0.030, 0.336, 0.952, 14:04:23.545, 1541747063545
103, 0.00, 0.00, 0.00, 2725.08, 0.00, 0.00, 0.00, 0.00, 0.000, 0.000, 0.000, 14:04:23.545, 1541747063545
104, 0.00, 0.00, 0.00, 12833.54, 0.00, 0.00, 0.00, 0.00, 0.000, 0.000, 0.000, 14:04:23.545, 1541747063545
105, 0.00, 0.00, 0.00, -11746.33, 0.00, 0.00, 0.00, 0.00, 0.000, 0.000, 0.000, 14:04:23.545, 1541747063545
106, 0.00, 0.00, 0.00, -35169.78, 0.00, 0.00, 0.00, 0.00, 0.000, 0.000, 0.000, 14:04:23.545, 1541747063545
107, 0.00, 0.00, 0.00, -24850.36, 0.00, 0.00, 0.00, 0.00, 0.000, 0.000, 0.000, 14:04:23.546, 1541747063546
108, 0.00, 0.00, 0.00, 2308.58, 0.00, 0.00, 0.00, 0.00, 0.000, 0.000, 0.000, 14:04:23.546, 1541747063546
109, 0.00, 0.00, 0.00, 13626.56, 0.00, 0.00, 0.00, 0.00, 0.000, 0.000, 0.000, 14:04:23.546, 1541747063546
110, 0.00, 0.00, 0.00, -10179.74, 0.00, 0.00, 0.00, 0.00, 0.000, 0.000, 0.000, 14:04:23.546, 1541747063546
111, 0.00, 0.00, 0.00, -35181.69, 0.00, 0.00, 0.00, 0.00, 0.000, 0.000, 0.000, 14:04:23.546, 1541747063546
112, 0.00, 0.00, 0.00, -26141.86, 0.00, 0.00, 0.00, 0.00, -0.028, 0.332, 0.954, 14:04:23.546, 1541747063546
113, 0.00, 0.00, 0.00, 1536.21, 0.00, 0.00, 0.00, 0.00, 0.000, 0.000, 0.000, 14:04:23.546, 1541747063546
114, 0.00, 0.00, 0.00, 14378.92, 0.00, 0.00, 0.00, 0.00, 0.000, 0.000, 0.000, 14:04:23.546, 1541747063546
115, 0.00, 0.00, 0.00, -8919.26, 0.00, 0.00, 0.00, 0.00, 0.000, 0.000, 0.000, 14:04:23.546, 1541747063546
116, 0.00, 0.00, 0.00, -35049.25, 0.00, 0.00, 0.00, 0.00, 0.000, 0.000, 0.000, 14:04:23.546, 1541747063546
117, 0.00, 0.00, 0.00, -26801.22, 0.00, 0.00, 0.00, 0.00, 0.000, 0.000, 0.000, 14:04:23.546, 1541747063546
118, 0.00, 0.00, 0.00, 896.17, 0.00, 0.00, 0.00, 0.00, 0.000, 0.000, 0.000, 14:04:23.546, 1541747063546
119, 0.00, 0.00, 0.00, 14413.03, 0.00, 0.00, 0.00, 0.00, 0.000, 0.000, 0.000, 14:04:23.546, 1541747063546
120, 0.00, 0.00, 0.00, -8695.86, 0.00, 0.00, 0.00, 0.00, 0.000, 0.000, 0.000, 14:04:24.019, 1541747064019
121, 0.00, 0.00, 0.00, -35463.21, 0.00, 0.00, 0.00, 0.00, 0.000, 0.000, 0.000, 14:04:24.019, 1541747064019
122, 0.00, 0.00, 0.00, -27567.28, 0.00, 0.00, 0.00, 0.00, -0.022, 0.330, 0.960, 14:04:24.019, 1541747064019
123, 0.00, 0.00, 0.00, 604.61, 0.00, 0.00, 0.00, 0.00, 0.000, 0.000, 0.000, 14:04:24.019, 1541747064019
124, 0.00, 0.00, 0.00, 15178.82, 0.00, 0.00, 0.00, 0.00, 0.000, 0.000, 0.000, 14:04:24.019, 1541747064019
125, 0.00, 0.00, 0.00, -7788.73, 0.00, 0.00, 0.00, 0.00, 0.000, 0.000, 0.000, 14:04:24.019, 1541747064019
126, 0.00, 0.00, 0.00, -35808.07, 0.00, 0.00, 0.00, 0.00, 0.000, 0.000, 0.000, 14:04:24.020, 1541747064020
127, 0.00, 0.00, 0.00, -28524.27, 0.00, 0.00, 0.00, 0.00, 0.000, 0.000, 0.000, 14:04:24.020, 1541747064020
128, 0.00, 0.00, 0.00, 13.39, 0.00, 0.00, 0.00, 0.00, 0.000, 0.000, 0.000, 14:04:24.020, 1541747064020
129, 0.00, 0.00, 0.00, 15900.23, 0.00, 0.00, 0.00, 0.00, 0.000, 0.000, 0.000, 14:04:24.020, 1541747064020
130, 0.00, 0.00, 0.00, -6555.30, 0.00, 0.00, 0.00, 0.00, 0.000, 0.000, 0.000, 14:04:24.020, 1541747064020
131, 0.00, 0.00, 0.00, -35873.39, 0.00, 0.00, 0.00, 0.00, 0.000, 0.000, 0.000, 14:04:24.020, 1541747064020
132, 0.00, 0.00, 0.00, -29547.73, 0.00, 0.00, 0.00, 0.00, -0.024, 0.334, 0.954, 14:04:24.020, 1541747064020
133, 0.00, 0.00, 0.00, -690.85, 0.00, 0.00, 0.00, 0.00, 0.000, 0.000, 0.000, 14:04:24.020, 1541747064020
134, 0.00, 0.00, 0.00, 16496.32, 0.00, 0.00, 0.00, 0.00, 0.000, 0.000, 0.000, 14:04:24.021, 1541747064021
135, 0.00, 0.00, 0.00, -5293.21, 0.00, 0.00, 0.00, 0.00, 0.000, 0.000, 0.000, 14:04:24.021, 1541747064021
136, 0.00, 0.00, 0.00, -35893.68, 0.00, 0.00, 0.00, 0.00, 0.000, 0.000, 0.000, 14:04:24.021, 1541747064021
137, 0.00, 0.00, 0.00, -30630.52, 0.00, 0.00, 0.00, 0.00, 0.000, 0.000, 0.000, 14:04:24.021, 1541747064021
138, 0.00, 0.00, 0.00, -1602.93, 0.00, 0.00, 0.00, 0.00, 0.000, 0.000, 0.000, 14:04:24.021, 1541747064021
139, 0.00, 0.00, 0.00, 17064.28, 0.00, 0.00, 0.00, 0.00, 0.000, 0.000, 0.000, 14:04:24.021, 1541747064021
140, 0.00, 0.00, 0.00, -4015.51, 0.00, 0.00, 0.00, 0.00, 0.000, 0.000, 0.000, 14:04:24.021, 1541747064021
141, 0.00, 0.00, 0.00, -35816.25, 0.00, 0.00, 0.00, 0.00, 0.000, 0.000, 0.000, 14:04:24.021, 1541747064021
142, 0.00, 0.00, 0.00, -31614.53, 0.00, 0.00, 0.00, 0.00, -0.034, 0.334, 0.942, 14:04:24.021, 1541747064021
143, 0.00, 0.00, 0.00, -2367.97, 0.00, 0.00, 0.00, 0.00, 0.000, 0.000, 0.000, 14:04:24.021, 1541747064021
144, 0.00, 0.00, 0.00, 17706.49, 0.00, 0.00, 0.00, 0.00, 0.000, 0.000, 0.000, 14:04:24.021, 1541747064021
145, 0.00, 0.00, 0.00, -2667.17, 0.00, 0.00, 0.00, 0.00, 0.000, 0.000, 0.000, 14:04:24.021, 1541747064021
146, 0.00, 0.00, 0.00, -35755.26, 0.00, 0.00, 0.00, 0.00, 0.000, 0.000, 0.000, 14:04:24.021, 1541747064021
147, 0.00, 0.00, 0.00, -32522.53, 0.00, 0.00, 0.00, 0.00, 0.000, 0.000, 0.000, 14:04:24.021, 1541747064021
148, 0.00, 0.00, 0.00, -2941.38, 0.00, 0.00, 0.00, 0.00, 0.000, 0.000, 0.000, 14:04:24.021, 1541747064021
149, 0.00, 0.00, 0.00, 18020.04, 0.00, 0.00, 0.00, 0.00, 0.000, 0.000, 0.000, 14:04:24.021, 1541747064021
150, 0.00, 0.00, 0.00, -1797.77, 0.00, 0.00, 0.00, 0.00, 0.000, 0.000, 0.000, 14:04:24.021, 1541747064021
151, 0.00, 0.00, 0.00, -35690.41, 0.00, 0.00, 0.00, 0.00, 0.000, 0.000, 0.000, 14:04:24.021, 1541747064021
152, 0.00, 0.00, 0.00, -33066.63, 0.00, 0.00, 0.00, 0.00, 0.000, 0.000, 0.000, 14:04:24.021, 1541747064021
153, 0.00, 0.00, 0.00, -3476.23, 0.00, 0.00, 0.00, 0.00, -0.038, 0.332, 0.950, 14:04:24.021, 1541747064021
154, 0.00, 0.00, 0.00, 18087.21, 0.00, 0.00, 0.00, 0.00, 0.000, 0.000, 0.000, 14:04:24.022, 1541747064022
155, 0.00, 0.00, 0.00, -1203.33, 0.00, 0.00, 0.00, 0.00, 0.000, 0.000, 0.000, 14:04:24.022, 1541747064022
156, 0.00, 0.00, 0.00, -35482.59, 0.00, 0.00, 0.00, 0.00, 0.000, 0.000, 0.000, 14:04:24.022, 1541747064022
157, 0.00, 0.00, 0.00, -33382.69, 0.00, 0.00, 0.00, 0.00, 0.000, 0.000, 0.000, 14:04:24.022, 1541747064022
158, 0.00, 0.00, 0.00, -3741.12, 0.00, 0.00, 0.00, 0.00, 0.000, 0.000, 0.000, 14:04:24.022, 1541747064022
159, 0.00, 0.00, 0.00, 18206.77, 0.00, 0.00, 0.00, 0.00, 0.000, 0.000, 0.000, 14:04:24.022, 1541747064022
160, 0.00, 0.00, 0.00, -777.26, 0.00, 0.00, 0.00, 0.00, 0.000, 0.000, 0.000, 14:04:24.022, 1541747064022
161, 0.00, 0.00, 0.00, -35354.89, 0.00, 0.00, 0.00, 0.00, 0.000, 0.000, 0.000, 14:04:24.022, 1541747064022
162, 0.00, 0.00, 0.00, -33716.67, 0.00, 0.00, 0.00, 0.00, 0.000, 0.000, 0.000, 14:04:24.022, 1541747064022
163, 0.00, 0.00, 0.00, -4196.34, 0.00, 0.00, 0.00, 0.00, -0.036, 0.334, 0.942, 14:04:24.022, 1541747064022
164, 0.00, 0.00, 0.00, 18254.60, 0.00, 0.00, 0.00, 0.00, 0.000, 0.000, 0.000, 14:04:24.022, 1541747064022
165, 0.00, 0.00, 0.00, -113.68, 0.00, 0.00, 0.00, 0.00, 0.000, 0.000, 0.000, 14:04:24.022, 1541747064022
166, 0.00, 0.00, 0.00, -35109.49, 0.00, 0.00, 0.00, 0.00, 0.000, 0.000, 0.000, 14:04:24.022, 1541747064022
167, 0.00, 0.00, 0.00, -34207.02, 0.00, 0.00, 0.00, 0.00, 0.000, 0.000, 0.000, 14:04:24.022, 1541747064022
168, 0.00, 0.00, 0.00, -4693.33, 0.00, 0.00, 0.00, 0.00, 0.000, 0.000, 0.000, 14:04:24.022, 1541747064022
169, 0.00, 0.00, 0.00, 18566.68, 0.00, 0.00, 0.00, 0.00, 0.000, 0.000, 0.000, 14:04:24.022, 1541747064022
170, 0.00, 0.00, 0.00, 750.26, 0.00, 0.00, 0.00, 0.00, 0.000, 0.000, 0.000, 14:04:24.022, 1541747064022
171, 0.00, 0.00, 0.00, -34884.72, 0.00, 0.00, 0.00, 0.00, 0.000, 0.000, 0.000, 14:04:24.022, 1541747064022
172, 0.00, 0.00, 0.00, -34632.55, 0.00, 0.00, 0.00, 0.00, 0.000, 0.000, 0.000, 14:04:24.022, 1541747064022
173, 0.00, 0.00, 0.00, -5107.35, 0.00, 0.00, 0.00, 0.00, -0.022, 0.330, 0.958, 14:04:24.022, 1541747064022
174, 0.00, 0.00, 0.00, 18616.83, 0.00, 0.00, 0.00, 0.00, 0.000, 0.000, 0.000, 14:04:24.022, 1541747064022
175, 0.00, 0.00, 0.00, 1250.27, 0.00, 0.00, 0.00, 0.00, 0.000, 0.000, 0.000, 14:04:24.022, 1541747064022
176, 0.00, 0.00, 0.00, -34691.29, 0.00, 0.00, 0.00, 0.00, 0.000, 0.000, 0.000, 14:04:24.023, 1541747064023
177, 0.00, 0.00, 0.00, -34852.16, 0.00, 0.00, 0.00, 0.00, 0.000, 0.000, 0.000, 14:04:24.023, 1541747064023
178, 0.00, 0.00, 0.00, -5399.33, 0.00, 0.00, 0.00, 0.00, 0.000, 0.000, 0.000, 14:04:24.023, 1541747064023
179, 0.00, 0.00, 0.00, 18519.72, 0.00, 0.00, 0.00, 0.00, 0.000, 0.000, 0.000, 14:04:24.023, 1541747064023
180, 0.00, 0.00, 0.00, 1410.62, 0.00, 0.00, 0.00, 0.00, 0.000, 0.000, 0.000, 14:04:24.023, 1541747064023
181, 0.00, 0.00, 0.00, -34580.29, 0.00, 0.00, 0.00, 0.00, 0.000, 0.000, 0.000, 14:04:24.023, 1541747064023
182, 0.00, 0.00, 0.00, -34918.65, 0.00, 0.00, 0.00, 0.00, 0.000, 0.000, 0.000, 14:04:24.023, 1541747064023
183, 0.00, 0.00, 0.00, -5614.38, 0.00, 0.00, 0.00, 0.00, -0.018, 0.342, 0.966, 14:04:24.023, 1541747064023
184, 0.00, 0.00, 0.00, 18459.77, 0.00, 0.00, 0.00, 0.00, 0.000, 0.000, 0.000, 14:04:24.023, 1541747064023
185, 0.00, 0.00, 0.00, 1724.35, 0.00, 0.00, 0.00, 0.00, 0.000, 0.000, 0.000, 14:04:24.023, 1541747064023
186, 0.00, 0.00, 0.00, -34354.14, 0.00, 0.00, 0.00, 0.00, 0.000, 0.000, 0.000, 14:04:24.023, 1541747064023
187, 0.00, 0.00, 0.00, -35132.87, 0.00, 0.00, 0.00, 0.00, 0.000, 0.000, 0.000, 14:04:24.023, 1541747064023
188, 0.00, 0.00, 0.00, -5977.44, 0.00, 0.00, 0.00, 0.00, 0.000, 0.000, 0.000, 14:04:24.023, 1541747064023
189, 0.00, 0.00, 0.00, 18323.65, 0.00, 0.00, 0.00, 0.00, 0.000, 0.000, 0.000, 14:04:24.023, 1541747064023
190, 0.00, 0.00, 0.00, 2079.32, 0.00, 0.00, 0.00, 0.00, 0.000, 0.000, 0.000, 14:04:24.023, 1541747064023
191, 0.00, 0.00, 0.00, -34124.16, 0.00, 0.00, 0.00, 0.00, 0.000, 0.000, 0.000, 14:04:24.023, 1541747064023
192, 0.00, 0.00, 0.00, -35348.66, 0.00, 0.00, 0.00, 0.00, 0.000, 0.000, 0.000, 14:04:24.023, 1541747064023
193, 0.00, 0.00, 0.00, -6363.03, 0.00, 0.00, 0.00, 0.00, -0.024, 0.336, 0.968, 14:04:24.023, 1541747064023
194, 0.00, 0.00, 0.00, 18277.20, 0.00, 0.00, 0.00, 0.00, 0.000, 0.000, 0.000, 14:04:24.023, 1541747064023
195, 0.00, 0.00, 0.00, 2491.84, 0.00, 0.00, 0.00, 0.00, 0.000, 0.000, 0.000, 14:04:24.023, 1541747064023
196, 0.00, 0.00, 0.00, -33953.30, 0.00, 0.00, 0.00, 0.00, 0.000, 0.000, 0.000, 14:04:24.023, 1541747064023
197, 0.00, 0.00, 0.00, -35746.56, 0.00, 0.00, 0.00, 0.00, 0.000, 0.000, 0.000, 14:04:24.023, 1541747064023
198, 0.00, 0.00, 0.00, -6794.62, 0.00, 0.00, 0.00, 0.00, 0.000, 0.000, 0.000, 14:04:24.023, 1541747064023
199, 0.00, 0.00, 0.00, 18271.19, 0.00, 0.00, 0.00, 0.00, 0.000, 0.000, 0.000, 14:04:24.023, 1541747064023
200, 0.00, 0.00, 0.00, 2935.45, 0.00, 0.00, 0.00, 0.00, 0.000, 0.000, 0.000, 14:04:24.024, 1541747064024
201, 0.00, 0.00, 0.00, -33734.84, 0.00, 0.00, 0.00, 0.00, 0.000, 0.000, 0.000, 14:04:24.024, 1541747064024
202, 0.00, 0.00, 0.00, -35914.94, 0.00, 0.00, 0.00, 0.00, 0.000, 0.000, 0.000, 14:04:24.024, 1541747064024
203, 0.00, 0.00, 0.00, -7080.63, 0.00, 0.00, 0.00, 0.00, -0.028, 0.334, 0.966, 14:04:24.024, 1541747064024
204, 0.00, 0.00, 0.00, 18246.44, 0.00, 0.00, 0.00, 0.00, 0.000, 0.000, 0.000, 14:04:24.024, 1541747064024
205, 0.00, 0.00, 0.00, 3200.57, 0.00, 0.00, 0.00, 0.00, 0.000, 0.000, 0.000, 14:04:24.024, 1541747064024
206, 0.00, 0.00, 0.00, -33631.53, 0.00, 0.00, 0.00, 0.00, 0.000, 0.000, 0.000, 14:04:24.024, 1541747064024
207, 0.00, 0.00, 0.00, -36230.68, 0.00, 0.00, 0.00, 0.00, 0.000, 0.000, 0.000, 14:04:24.024, 1541747064024
208, 0.00, 0.00, 0.00, -7473.69, 0.00, 0.00, 0.00, 0.00, 0.000, 0.000, 0.000, 14:04:24.024, 1541747064024
209, 0.00, 0.00, 0.00, 18220.61, 0.00, 0.00, 0.00, 0.00, 0.000, 0.000, 0.000, 14:04:24.024, 1541747064024
210, 0.00, 0.00, 0.00, 3720.22, 0.00, 0.00, 0.00, 0.00, 0.000, 0.000, 0.000, 14:04:24.024, 1541747064024
211, 0.00, 0.00, 0.00, -33399.79, 0.00, 0.00, 0.00, 0.00, 0.000, 0.000, 0.000, 14:04:24.024, 1541747064024
212, 0.00, 0.00, 0.00, -36552.05, 0.00, 0.00, 0.00, 0.00, 0.000, 0.000, 0.000, 14:04:24.024, 1541747064024
213, 0.00, 0.00, 0.00, -7843.96, 0.00, 0.00, 0.00, 0.00, -0.032, 0.336, 0.962, 14:04:24.024, 1541747064024
214, 0.00, 0.00, 0.00, 18181.76, 0.00, 0.00, 0.00, 0.00, 0.000, 0.000, 0.000, 14:04:24.024, 1541747064024
215, 0.00, 0.00, 0.00, 4160.62, 0.00, 0.00, 0.00, 0.00, 0.000, 0.000, 0.000, 14:04:24.024, 1541747064024
216, 0.00, 0.00, 0.00, -33136.44, 0.00, 0.00, 0.00, 0.00, 0.000, 0.000, 0.000, 14:04:24.024, 1541747064024
217, 0.00, 0.00, 0.00, -36737.82, 0.00, 0.00, 0.00, 0.00, 0.000, 0.000, 0.000, 14:04:24.024, 1541747064024
218, 0.00, 0.00, 0.00, -8219.52, 0.00, 0.00, 0.00, 0.00, 0.000, 0.000, 0.000, 14:04:24.024, 1541747064024
219, 0.00, 0.00, 0.00, 18181.11, 0.00, 0.00, 0.00, 0.00, 0.000, 0.000, 0.000, 14:04:24.024, 1541747064024
220, 0.00, 0.00, 0.00, 4653.92, 0.00, 0.00, 0.00, 0.00, 0.000, 0.000, 0.000, 14:04:24.024, 1541747064024
221, 0.00, 0.00, 0.00, -32943.36, 0.00, 0.00, 0.00, 0.00, 0.000, 0.000, 0.000, 14:04:24.024, 1541747064024
222, 0.00, 0.00, 0.00, -37097.43, 0.00, 0.00, 0.00, 0.00, 0.000, 0.000, 0.000, 14:04:24.024, 1541747064024
223, 0.00, 0.00, 0.00, -8576.48, 0.00, 0.00, 0.00, 0.00, 0.000, 0.000, 0.000, 14:04:24.025, 1541747064025
224, 0.00, 0.00, 0.00, 18224.23, 0.00, 0.00, 0.00, 0.00, -0.032, 0.336, 0.958, 14:04:24.025, 1541747064025
225, 0.00, 0.00, 0.00, 5140.66, 0.00, 0.00, 0.00, 0.00, 0.000, 0.000, 0.000, 14:04:24.025, 1541747064025
226, 0.00, 0.00, 0.00, -32673.71, 0.00, 0.00, 0.00, 0.00, 0.000, 0.000, 0.000, 14:04:24.025, 1541747064025
227, 0.00, 0.00, 0.00, -37305.89, 0.00, 0.00, 0.00, 0.00, 0.000, 0.000, 0.000, 14:04:24.025, 1541747064025
228, 0.00, 0.00, 0.00, -8932.23, 0.00, 0.00, 0.00, 0.00, 0.000, 0.000, 0.000, 14:04:24.025, 1541747064025
229, 0.00, 0.00, 0.00, 18169.73, 0.00, 0.00, 0.00, 0.00, 0.000, 0.000, 0.000, 14:04:24.025, 1541747064025
230, 0.00, 0.00, 0.00, 5502.73, 0.00, 0.00, 0.00, 0.00, 0.000, 0.000, 0.000, 14:04:24.025, 1541747064025
231, 0.00, 0.00, 0.00, -32557.93, 0.00, 0.00, 0.00, 0.00, 0.000, 0.000, 0.000, 14:04:24.025, 1541747064025
232, 0.00, 0.00, 0.00, -37622.25, 0.00, 0.00, 0.00, 0.00, 0.000, 0.000, 0.000, 14:04:24.025, 1541747064025
233, 0.00, 0.00, 0.00, -9249.40, 0.00, 0.00, 0.00, 0.00, 0.000, 0.000, 0.000, 14:04:24.025, 1541747064025
234, 0.00, 0.00, 0.00, 18209.81, 0.00, 0.00, 0.00, 0.00, -0.034, 0.336, 0.952, 14:04:24.025, 1541747064025
235, 0.00, 0.00, 0.00, 5993.26, 0.00, 0.00, 0.00, 0.00, 0.000, 0.000, 0.000, 14:04:24.025, 1541747064025
236, 0.00, 0.00, 0.00, -32324.06, 0.00, 0.00, 0.00, 0.00, 0.000, 0.000, 0.000, 14:04:24.025, 1541747064025
237, 0.00, 0.00, 0.00, -37905.45, 0.00, 0.00, 0.00, 0.00, 0.000, 0.000, 0.000, 14:04:24.025, 1541747064025
238, 0.00, 0.00, 0.00, -9617.20, 0.00, 0.00, 0.00, 0.00, 0.000, 0.000, 0.000, 14:04:24.025, 1541747064025
239, 0.00, 0.00, 0.00, 18165.29, 0.00, 0.00, 0.00, 0.00, 0.000, 0.000, 0.000, 14:04:24.025, 1541747064025
240, 0.00, 0.00, 0.00, 6353.53, 0.00, 0.00, 0.00, 0.00, 0.000, 0.000, 0.000, 14:04:24.487, 1541747064487
241, 0.00, 0.00, 0.00, -32122.00, 0.00, 0.00, 0.00, 0.00, 0.000, 0.000, 0.000, 14:04:24.488, 1541747064488
242, 0.00, 0.00, 0.00, -38104.65, 0.00, 0.00, 0.00, 0.00, 0.000, 0.000, 0.000, 14:04:24.488, 1541747064488
243, 0.00, 0.00, 0.00, -9910.88, 0.00, 0.00, 0.00, 0.00, 0.000, 0.000, 0.000, 14:04:24.488, 1541747064488
244, 0.00, 0.00, 0.00, 18089.04, 0.00, 0.00, 0.00, 0.00, -0.032, 0.330, 0.948, 14:04:24.488, 1541747064488
245, 0.00, 0.00, 0.00, 6734.56, 0.00, 0.00, 0.00, 0.00, 0.000, 0.000, 0.000, 14:04:24.488, 1541747064488
246, 0.00, 0.00, 0.00, -31953.03, 0.00, 0.00, 0.00, 0.00, 0.000, 0.000, 0.000, 14:04:24.488, 1541747064488
247, 0.00, 0.00, 0.00, -38291.27, 0.00, 0.00, 0.00, 0.00, 0.000, 0.000, 0.000, 14:04:24.489, 1541747064489
248, 0.00, 0.00, 0.00, -10108.49, 0.00, 0.00, 0.00, 0.00, 0.000, 0.000, 0.000, 14:04:24.489, 1541747064489
249, 0.00, 0.00, 0.00, 18126.44, 0.00, 0.00, 0.00, 0.00, 0.000, 0.000, 0.000, 14:04:24.489, 1541747064489
250, 0.00, 0.00, 0.00, 7143.68, 0.00, 0.00, 0.00, 0.00, 0.000, 0.000, 0.000, 14:04:24.489, 1541747064489
251, 0.00, 0.00, 0.00, -31650.11, 0.00, 0.00, 0.00, 0.00, 0.000, 0.000, 0.000, 14:04:24.489, 1541747064489
252, 0.00, 0.00, 0.00, -38489.08, 0.00, 0.00, 0.00, 0.00, 0.000, 0.000, 0.000, 14:04:24.489, 1541747064489
253, 0.00, 0.00, 0.00, -10514.91, 0.00, 0.00, 0.00, 0.00, 0.000, 0.000, 0.000, 14:04:24.489, 1541747064489
254, 0.00, 0.00, 0.00, 17980.03, 0.00, 0.00, 0.00, 0.00, -0.028, 0.334, 0.944, 14:04:24.489, 1541747064489
255, 0.00, 0.00, 0.00, 7419.24, 0.00, 0.00, 0.00, 0.00, 0.000, 0.000, 0.000, 14:04:24.489, 1541747064489
0, 0.00, 0.00, 0.00, -31473.87, 0.00, 0.00, 0.00, 0.00, 0.000, 0.000, 0.000, 14:04:24.489, 1541747064489
1, 0.00, 0.00, 0.00, -38782.00, 0.00, 0.00, 0.00, 0.00, 0.000, 0.000, 0.000, 14:04:24.489, 1541747064489
2, 0.00, 0.00, 0.00, -10866.68, 0.00, 0.00, 0.00, 0.00, 0.000, 0.000, 0.000, 14:04:24.489, 1541747064489
3, 0.00, 0.00, 0.00, 17960.05, 0.00, 0.00, 0.00, 0.00, 0.000, 0.000, 0.000, 14:04:24.489, 1541747064489
4, 0.00, 0.00, 0.00, 7815.67, 0.00, 0.00, 0.00, 0.00, 0.000, 0.000, 0.000, 14:04:24.489, 1541747064489
5, 0.00, 0.00, 0.00, -31206.74, 0.00, 0.00, 0.00, 0.00, 0.000, 0.000, 0.000, 14:04:24.489, 1541747064489
6, 0.00, 0.00, 0.00, -38942.71, 0.00, 0.00, 0.00, 0.00, 0.000, 0.000, 0.000, 14:04:24.489, 1541747064489
7, 0.00, 0.00, 0.00, -11208.84, 0.00, 0.00, 0.00, 0.00, 0.000, 0.000, 0.000, 14:04:24.490, 1541747064490
8, 0.00, 0.00, 0.00, 17796.30, 0.00, 0.00, 0.00, 0.00, -0.028, 0.336, 0.944, 14:04:24.490, 1541747064490
9, 0.00, 0.00, 0.00, 8163.82, 0.00, 0.00, 0.00, 0.00, 0.000, 0.000, 0.000, 14:04:24.490, 1541747064490
10, 0.00, 0.00, 0.00, -30935.44, 0.00, 0.00, 0.00, 0.00, 0.000, 0.000, 0.000, 14:04:24.490, 1541747064490
11, 0.00, 0.00, 0.00, -39120.89, 0.00, 0.00, 0.00, 0.00, 0.000, 0.000, 0.000, 14:04:24.490, 1541747064490
12, 0.00, 0.00, 0.00, -11504.46, 0.00, 0.00, 0.00, 0.00, 0.000, 0.000, 0.000, 14:04:24.490, 1541747064490
13, 0.00, 0.00, 0.00, 17731.33, 0.00, 0.00, 0.00, 0.00, 0.000, 0.000, 0.000, 14:04:24.490, 1541747064490
14, 0.00, 0.00, 0.00, 8536.22, 0.00, 0.00, 0.00, 0.00, 0.000, 0.000, 0.000, 14:04:24.490, 1541747064490
15, 0.00, 0.00, 0.00, -30619.63, 0.00, 0.00, 0.00, 0.00, 0.000, 0.000, 0.000, 14:04:24.490, 1541747064490
16, 0.00, 0.00, 0.00, -39296.11, 0.00, 0.00, 0.00, 0.00, 0.000, 0.000, 0.000, 14:04:24.490, 1541747064490
17, 0.00, 0.00, 0.00, -11883.53, 0.00, 0.00, 0.00, 0.00, 0.000, 0.000, 0.000, 14:04:24.490, 1541747064490
18, 0.00, 0.00, 0.00, 17574.80, 0.00, 0.00, 0.00, 0.00, -0.032, 0.336, 0.944, 14:04:24.491, 1541747064491
19, 0.00, 0.00, 0.00, 8878.60, 0.00, 0.00, 0.00, 0.00, 0.000, 0.000, 0.000, 14:04:24.491, 1541747064491
20, 0.00, 0.00, 0.00, -30331.03, 0.00, 0.00, 0.00, 0.00, 0.000, 0.000, 0.000, 14:04:24.491, 1541747064491
21, 0.00, 0.00, 0.00, -39407.33, 0.00, 0.00, 0.00, 0.00, 0.000, 0.000, 0.000, 14:04:24.491, 1541747064491
22, 0.00, 0.00, 0.00, -12163.89, 0.00, 0.00, 0.00, 0.00, 0.000, 0.000, 0.000, 14:04:24.491, 1541747064491
23, 0.00, 0.00, 0.00, 17501.55, 0.00, 0.00, 0.00, 0.00, 0.000, 0.000, 0.000, 14:04:24.491, 1541747064491
24, 0.00, 0.00, 0.00, 9216.12, 0.00, 0.00, 0.00, 0.00, 0.000, 0.000, 0.000, 14:04:24.491, 1541747064491
25, 0.00, 0.00, 0.00, -30065.53, 0.00, 0.00, 0.00, 0.00, 0.000, 0.000, 0.000, 14:04:24.491, 1541747064491
26, 0.00, 0.00, 0.00, -39565.38, 0.00, 0.00, 0.00, 0.00, 0.000, 0.000, 0.000, 14:04:24.491, 1541747064491
27, 0.00, 0.00, 0.00, -12485.50, 0.00, 0.00, 0.00, 0.00, 0.000, 0.000, 0.000, 14:04:24.492, 1541747064492
28, 0.00, 0.00, 0.00, 17296.14, 0.00, 0.00, 0.00, 0.00, -0.026, 0.338, 0.942, 14:04:24.492, 1541747064492
29, 0.00, 0.00, 0.00, 9519.23, 0.00, 0.00, 0.00, 0.00, 0.000, 0.000, 0.000, 14:04:24.492, 1541747064492
30, 0.00, 0.00, 0.00, -29695.79, 0.00, 0.00, 0.00, 0.00, 0.000, 0.000, 0.000, 14:04:24.492, 1541747064492
31, 0.00, 0.00, 0.00, -39674.81, 0.00, 0.00, 0.00, 0.00, 0.000, 0.000, 0.000, 14:04:24.492, 1541747064492
32, 0.00, 0.00, 0.00, -12864.41, 0.00, 0.00, 0.00, 0.00, 0.000, 0.000, 0.000, 14:04:24.492, 1541747064492
33, 0.00, 0.00, 0.00, 17146.07, 0.00, 0.00, 0.00, 0.00, 0.000, 0.000, 0.000, 14:04:24.492, 1541747064492
34, 0.00, 0.00, 0.00, 9775.85, 0.00, 0.00, 0.00, 0.00, 0.000, 0.000, 0.000, 14:04:24.492, 1541747064492
35, 0.00, 0.00, 0.00, -29475.27, 0.00, 0.00, 0.00, 0.00, 0.000, 0.000, 0.000, 14:04:24.492, 1541747064492
36, 0.00, 0.00, 0.00, -39792.56, 0.00, 0.00, 0.00, 0.00, 0.000, 0.000, 0.000, 14:04:24.492, 1541747064492
37, 0.00, 0.00, 0.00, -13131.56, 0.00, 0.00, 0.00, 0.00, 0.000, 0.000, 0.000, 14:04:24.492, 1541747064492
38, 0.00, 0.00, 0.00, 17094.32, 0.00, 0.00, 0.00, 0.00, -0.030, 0.340, 0.946, 14:04:24.493, 1541747064493
39, 0.00, 0.00, 0.00, 10163.79, 0.00, 0.00, 0.00, 0.00, 0.000, 0.000, 0.000, 14:04:24.494, 1541747064494
40, 0.00, 0.00, 0.00, -29100.38, 0.00, 0.00, 0.00, 0.00, 0.000, 0.000, 0.000, 14:04:24.494, 1541747064494
41, 0.00, 0.00, 0.00, -39950.19, 0.00, 0.00, 0.00, 0.00, 0.000, 0.000, 0.000, 14:04:24.494, 1541747064494
42, 0.00, 0.00, 0.00, -13532.84, 0.00, 0.00, 0.00, 0.00, 0.000, 0.000, 0.000, 14:04:24.494, 1541747064494
43, 0.00, 0.00, 0.00, 16855.20, 0.00, 0.00, 0.00, 0.00, 0.000, 0.000, 0.000, 14:04:24.494, 1541747064494
44, 0.00, 0.00, 0.00, 10455.12, 0.00, 0.00, 0.00, 0.00, 0.000, 0.000, 0.000, 14:04:24.494, 1541747064494
45, 0.00, 0.00, 0.00, -28791.06, 0.00, 0.00, 0.00, 0.00, 0.000, 0.000, 0.000, 14:04:24.494, 1541747064494
46, 0.00, 0.00, 0.00, -40013.89, 0.00, 0.00, 0.00, 0.00, 0.000, 0.000, 0.000, 14:04:24.494, 1541747064494
47, 0.00, 0.00, 0.00, -13783.90, 0.00, 0.00, 0.00, 0.00, 0.000, 0.000, 0.000, 14:04:24.494, 1541747064494
48, 0.00, 0.00, 0.00, 16730.62, 0.00, 0.00, 0.00, 0.00, 0.000, 0.000, 0.000, 14:04:24.494, 1541747064494
49, 0.00, 0.00, 0.00, 10760.80, 0.00, 0.00, 0.00, 0.00, -0.026, 0.340, 0.950, 14:04:24.494, 1541747064494
50, 0.00, 0.00, 0.00, -28511.17, 0.00, 0.00, 0.00, 0.00, 0.000, 0.000, 0.000, 14:04:24.494, 1541747064494
51, 0.00, 0.00, 0.00, -40261.21, 0.00, 0.00, 0.00, 0.00, 0.000, 0.000, 0.000, 14:04:24.494, 1541747064494
52, 0.00, 0.00, 0.00, -14164.75, 0.00, 0.00, 0.00, 0.00, 0.000, 0.000, 0.000, 14:04:24.494, 1541747064494
53, 0.00, 0.00, 0.00, 16610.41, 0.00, 0.00, 0.00, 0.00, 0.000, 0.000, 0.000, 14:04:24.494, 1541747064494
54, 0.00, 0.00, 0.00, 11129.47, 0.00, 0.00, 0.00, 0.00, 0.000, 0.000, 0.000, 14:04:24.494, 1541747064494
55, 0.00, 0.00, 0.00, -28110.36, 0.00, 0.00, 0.00, 0.00, 0.000, 0.000, 0.000, 14:04:24.494, 1541747064494
56, 0.00, 0.00, 0.00, -40320.85, 0.00, 0.00, 0.00, 0.00, 0.000, 0.000, 0.000, 14:04:24.495, 1541747064495
57, 0.00, 0.00, 0.00, -14516.05, 0.00, 0.00, 0.00, 0.00, 0.000, 0.000, 0.000, 14:04:24.495, 1541747064495
58, 0.00, 0.00, 0.00, 16419.08, 0.00, 0.00, 0.00, 0.00, 0.000, 0.000, 0.000, 14:04:24.495, 1541747064495
59, 0.00, 0.00, 0.00, 11415.13, 0.00, 0.00, 0.00, 0.00, -0.024, 0.340, 0.954, 14:04:24.495, 1541747064495
60, 0.00, 0.00, 0.00, -27806.53, 0.00, 0.00, 0.00, 0.00, 0.000, 0.000, 0.000, 14:04:24.495, 1541747064495
61, 0.00, 0.00, 0.00, -40390.43, 0.00, 0.00, 0.00, 0.00, 0.000, 0.000, 0.000, 14:04:24.495, 1541747064495
62, 0.00, 0.00, 0.00, -14843.77, 0.00, 0.00, 0.00, 0.00, 0.000, 0.000, 0.000, 14:04:24.495, 1541747064495
63, 0.00, 0.00, 0.00, 16247.10, 0.00, 0.00, 0.00, 0.00, 0.000, 0.000, 0.000, 14:04:24.495, 1541747064495
64, 0.00, 0.00, 0.00, 11745.95, 0.00, 0.00, 0.00, 0.00, 0.000, 0.000, 0.000, 14:04:24.495, 1541747064495
65, 0.00, 0.00, 0.00, -27438.08, 0.00, 0.00, 0.00, 0.00, 0.000, 0.000, 0.000, 14:04:24.495, 1541747064495
66, 0.00, 0.00, 0.00, -40481.31, 0.00, 0.00, 0.00, 0.00, 0.000, 0.000, 0.000, 14:04:24.495, 1541747064495
67, 0.00, 0.00, 0.00, -15098.36, 0.00, 0.00, 0.00, 0.00, 0.000, 0.000, 0.000, 14:04:24.495, 1541747064495
68, 0.00, 0.00, 0.00, 16046.54, 0.00, 0.00, 0.00, 0.00, 0.000, 0.000, 0.000, 14:04:24.495, 1541747064495
69, 0.00, 0.00, 0.00, 11988.56, 0.00, 0.00, 0.00, 0.00, -0.024, 0.340, 0.950, 14:04:24.495, 1541747064495
70, 0.00, 0.00, 0.00, -27158.15, 0.00, 0.00, 0.00, 0.00, 0.000, 0.000, 0.000, 14:04:24.495, 1541747064495
71, 0.00, 0.00, 0.00, -40640.52, 0.00, 0.00, 0.00, 0.00, 0.000, 0.000, 0.000, 14:04:24.495, 1541747064495
72, 0.00, 0.00, 0.00, -15393.74, 0.00, 0.00, 0.00, 0.00, 0.000, 0.000, 0.000, 14:04:24.495, 1541747064495
73, 0.00, 0.00, 0.00, 15979.08, 0.00, 0.00, 0.00, 0.00, 0.000, 0.000, 0.000, 14:04:24.495, 1541747064495
74, 0.00, 0.00, 0.00, 12305.15, 0.00, 0.00, 0.00, 0.00, 0.000, 0.000, 0.000, 14:04:24.495, 1541747064495
75, 0.00, 0.00, 0.00, -26859.31, 0.00, 0.00, 0.00, 0.00, 0.000, 0.000, 0.000, 14:04:24.495, 1541747064495
76, 0.00, 0.00, 0.00, -40867.19, 0.00, 0.00, 0.00, 0.00, 0.000, 0.000, 0.000, 14:04:24.495, 1541747064495
77, 0.00, 0.00, 0.00, -15826.64, 0.00, 0.00, 0.00, 0.00, 0.000, 0.000, 0.000, 14:04:24.495, 1541747064495
78, 0.00, 0.00, 0.00, 15732.83, 0.00, 0.00, 0.00, 0.00, 0.000, 0.000, 0.000, 14:04:24.495, 1541747064495
79, 0.00, 0.00, 0.00, 12533.81, 0.00, 0.00, 0.00, 0.00, -0.026, 0.342, 0.952, 14:04:24.495, 1541747064495
80, 0.00, 0.00, 0.00, -26485.88, 0.00, 0.00, 0.00, 0.00, 0.000, 0.000, 0.000, 14:04:24.495, 1541747064495
81, 0.00, 0.00, 0.00, -40824.10, 0.00, 0.00, 0.00, 0.00, 0.000, 0.000, 0.000, 14:04:24.495, 1541747064495
82, 0.00, 0.00, 0.00, -16093.66, 0.00, 0.00, 0.00, 0.00, 0.000, 0.000, 0.000, 14:04:24.496, 1541747064496
83, 0.00, 0.00, 0.00, 15510.57, 0.00, 0.00, 0.00, 0.00, 0.000, 0.000, 0.000, 14:04:24.496, 1541747064496
84, 0.00, 0.00, 0.00, 12814.43, 0.00, 0.00, 0.00, 0.00, 0.000, 0.000, 0.000, 14:04:24.496, 1541747064496
85, 0.00, 0.00, 0.00, -26183.10, 0.00, 0.00, 0.00, 0.00, 0.000, 0.000, 0.000, 14:04:24.496, 1541747064496
86, 0.00, 0.00, 0.00, -40972.13, 0.00, 0.00, 0.00, 0.00, 0.000, 0.000, 0.000, 14:04:24.496, 1541747064496
87, 0.00, 0.00, 0.00, -16514.68, 0.00, 0.00, 0.00, 0.00, 0.000, 0.000, 0.000, 14:04:24.496, 1541747064496
88, 0.00, 0.00, 0.00, 15324.49, 0.00, 0.00, 0.00, 0.00, 0.000, 0.000, 0.000, 14:04:24.496, 1541747064496
89, 0.00, 0.00, 0.00, 13153.42, 0.00, 0.00, 0.00, 0.00, -0.020, 0.344, 0.954, 14:04:24.496, 1541747064496
90, 0.00, 0.00, 0.00, -25794.40, 0.00, 0.00, 0.00, 0.00, 0.000, 0.000, 0.000, 14:04:24.496, 1541747064496
91, 0.00, 0.00, 0.00, -41063.02, 0.00, 0.00, 0.00, 0.00, 0.000, 0.000, 0.000, 14:04:24.496, 1541747064496
92, 0.00, 0.00, 0.00, -16850.85, 0.00, 0.00, 0.00, 0.00, 0.000, 0.000, 0.000, 14:04:24.496, 1541747064496
93, 0.00, 0.00, 0.00, 15116.22, 0.00, 0.00, 0.00, 0.00, 0.000, 0.000, 0.000, 14:04:24.496, 1541747064496
94, 0.00, 0.00, 0.00, 13401.17, 0.00, 0.00, 0.00, 0.00, 0.000, 0.000, 0.000, 14:04:24.496, 1541747064496
95, 0.00, 0.00, 0.00, -25481.77, 0.00, 0.00, 0.00, 0.00, 0.000, 0.000, 0.000, 14:04:24.496, 1541747064496
96, 0.00, 0.00, 0.00, -41196.59, 0.00, 0.00, 0.00, 0.00, 0.000, 0.000, 0.000, 14:04:24.496, 1541747064496
97, 0.00, 0.00, 0.00, -17088.60, 0.00, 0.00, 0.00, 0.00, 0.000, 0.000, 0.000, 14:04:24.496, 1541747064496
98, 0.00, 0.00, 0.00, 15057.61, 0.00, 0.00, 0.00, 0.00, 0.000, 0.000, 0.000, 14:04:24.496, 1541747064496
99, 0.00, 0.00, 0.00, 13798.69, 0.00, 0.00, 0.00, 0.00, -0.024, 0.336, 0.964, 14:04:24.496, 1541747064496
100, 0.00, 0.00, 0.00, -24987.51, 0.00, 0.00, 0.00, 0.00, 0.000, 0.000, 0.000, 14:04:24.496, 1541747064496
101, 0.00, 0.00, 0.00, -41107.29, 0.00, 0.00, 0.00, 0.00, 0.000, 0.000, 0.000, 14:04:24.496, 1541747064496
102, 0.00, 0.00, 0.00, -17309.82, 0.00, 0.00, 0.00, 0.00, 0.000, 0.000, 0.000, 14:04:24.496, 1541747064496
103, 0.00, 0.00, 0.00, 15003.90, 0.00, 0.00, 0.00, 0.00, 0.000, 0.000, 0.000, 14:04:24.496, 1541747064496
104, 0.00, 0.00, 0.00, 14218.91, 0.00, 0.00, 0.00, 0.00, 0.000, 0.000, 0.000, 14:04:24.967, 1541747064967
105, 0.00, 0.00, 0.00, -24505.02, 0.00, 0.00, 0.00, 0.00, 0.000, 0.000, 0.000, 14:04:24.967, 1541747064967
106, 0.00, 0.00, 0.00, -41145.78, 0.00, 0.00, 0.00, 0.00, 0.000, 0.000, 0.000, 14:04:24.968, 1541747064968
107, 0.00, 0.00, 0.00, -17688.43, 0.00, 0.00, 0.00, 0.00, 0.000, 0.000, 0.000, 14:04:24.968, 1541747064968
108, 0.00, 0.00, 0.00, 14680.87, 0.00, 0.00, 0.00, 0.00, 0.000, 0.000, 0.000, 14:04:24.968, 1541747064968
109, 0.00, 0.00, 0.00, 14323.94, 0.00, 0.00, 0.00, 0.00, -0.028, 0.336, 0.958, 14:04:24.968, 1541747064968
110, 0.00, 0.00, 0.00, -24437.03, 0.00, 0.00, 0.00, 0.00, 0.000, 0.000, 0.000, 14:04:24.968, 1541747064968
111, 0.00, 0.00, 0.00, -41550.13, 0.00, 0.00, 0.00, 0.00, 0.000, 0.000, 0.000, 14:04:24.968, 1541747064968
112, 0.00, 0.00, 0.00, -18340.25, 0.00, 0.00, 0.00, 0.00, 0.000, 0.000, 0.000, 14:04:24.968, 1541747064968
113, 0.00, 0.00, 0.00, 14208.85, 0.00, 0.00, 0.00, 0.00, 0.000, 0.000, 0.000, 14:04:24.968, 1541747064968
114, 0.00, 0.00, 0.00, 14475.84, 0.00, 0.00, 0.00, 0.00, 0.000, 0.000, 0.000, 14:04:24.968, 1541747064968
115, 0.00, 0.00, 0.00, -24000.14, 0.00, 0.00, 0.00, 0.00, 0.000, 0.000, 0.000, 14:04:24.968, 1541747064968
116, 0.00, 0.00, 0.00, -41456.16, 0.00, 0.00, 0.00, 0.00, 0.000, 0.000, 0.000, 14:04:24.968, 1541747064968
117, 0.00, 0.00, 0.00, -18492.74, 0.00, 0.00, 0.00, 0.00, 0.000, 0.000, 0.000, 14:04:24.968, 1541747064968
118, 0.00, 0.00, 0.00, 14147.38, 0.00, 0.00, 0.00, 0.00, 0.000, 0.000, 0.000, 14:04:24.968, 1541747064968
119, 0.00, 0.00, 0.00, 14777.81, 0.00, 0.00, 0.00, 0.00, 0.000, 0.000, 0.000, 14:04:24.968, 1541747064968
120, 0.00, 0.00, 0.00, -23638.47, 0.00, 0.00, 0.00, 0.00, -0.028, 0.334, 0.960, 14:04:24.968, 1541747064968
121, 0.00, 0.00, 0.00, -41559.00, 0.00, 0.00, 0.00, 0.00, 0.000, 0.000, 0.000, 14:04:24.968, 1541747064968
122, 0.00, 0.00, 0.00, -18821.13, 0.00, 0.00, 0.00, 0.00, 0.000, 0.000, 0.000, 14:04:24.968, 1541747064968
123, 0.00, 0.00, 0.00, 13961.12, 0.00, 0.00, 0.00, 0.00, 0.000, 0.000, 0.000, 14:04:24.968, 1541747064968
124, 0.00, 0.00, 0.00, 14989.75, 0.00, 0.00, 0.00, 0.00, 0.000, 0.000, 0.000, 14:04:24.969, 1541747064969
125, 0.00, 0.00, 0.00, -23335.47, 0.00, 0.00, 0.00, 0.00, 0.000, 0.000, 0.000, 14:04:24.969, 1541747064969
126, 0.00, 0.00, 0.00, -41616.55, 0.00, 0.00, 0.00, 0.00, 0.000, 0.000, 0.000, 14:04:24.969, 1541747064969
127, 0.00, 0.00, 0.00, -19115.26, 0.00, 0.00, 0.00, 0.00, 0.000, 0.000, 0.000, 14:04:24.969, 1541747064969
128, 0.00, 0.00, 0.00, 13791.16, 0.00, 0.00, 0.00, 0.00, 0.000, 0.000, 0.000, 14:04:24.969, 1541747064969
129, 0.00, 0.00, 0.00, 15336.45, 0.00, 0.00, 0.00, 0.00, 0.000, 0.000, 0.000, 14:04:24.969, 1541747064969
130, 0.00, 0.00, 0.00, -22884.70, 0.00, 0.00, 0.00, 0.00, -0.032, 0.334, 0.954, 14:04:24.969, 1541747064969
131, 0.00, 0.00, 0.00, -41634.08, 0.00, 0.00, 0.00, 0.00, 0.000, 0.000, 0.000, 14:04:24.969, 1541747064969
132, 0.00, 0.00, 0.00, -19430.93, 0.00, 0.00, 0.00, 0.00, 0.000, 0.000, 0.000, 14:04:24.969, 1541747064969
133, 0.00, 0.00, 0.00, 13527.48, 0.00, 0.00, 0.00, 0.00, 0.000, 0.000, 0.000, 14:04:24.969, 1541747064969
134, 0.00, 0.00, 0.00, 15537.43, 0.00, 0.00, 0.00, 0.00, 0.000, 0.000, 0.000, 14:04:24.969, 1541747064969
135, 0.00, 0.00, 0.00, -22535.56, 0.00, 0.00, 0.00, 0.00, 0.000, 0.000, 0.000, 14:04:24.969, 1541747064969
136, 0.00, 0.00, 0.00, -41719.93, 0.00, 0.00, 0.00, 0.00, 0.000, 0.000, 0.000, 14:04:24.969, 1541747064969
137, 0.00, 0.00, 0.00, -19764.69, 0.00, 0.00, 0.00, 0.00, 0.000, 0.000, 0.000, 14:04:24.969, 1541747064969
138, 0.00, 0.00, 0.00, 13387.67, 0.00, 0.00, 0.00, 0.00, 0.000, 0.000, 0.000, 14:04:24.969, 1541747064969
139, 0.00, 0.00, 0.00, 15813.95, 0.00, 0.00, 0.00, 0.00, 0.000, 0.000, 0.000, 14:04:24.969, 1541747064969
140, 0.00, 0.00, 0.00, -22195.73, 0.00, 0.00, 0.00, 0.00, -0.028, 0.338, 0.954, 14:04:24.969, 1541747064969
141, 0.00, 0.00, 0.00, -41791.99, 0.00, 0.00, 0.00, 0.00, 0.000, 0.000, 0.000, 14:04:24.970, 1541747064970
142, 0.00, 0.00, 0.00, -20081.54, 0.00, 0.00, 0.00, 0.00, 0.000, 0.000, 0.000, 14:04:24.970, 1541747064970
143, 0.00, 0.00, 0.00, 13185.41, 0.00, 0.00, 0.00, 0.00, 0.000, 0.000, 0.000, 14:04:24.970, 1541747064970
144, 0.00, 0.00, 0.00, 16040.68, 0.00, 0.00, 0.00, 0.00, 0.000, 0.000, 0.000, 14:04:24.970, 1541747064970
145, 0.00, 0.00, 0.00, -21843.11, 0.00, 0.00, 0.00, 0.00, 0.000, 0.000, 0.000, 14:04:24.970, 1541747064970
146, 0.00, 0.00, 0.00, -41836.47, 0.00, 0.00, 0.00, 0.00, 0.000, 0.000, 0.000, 14:04:24.970, 1541747064970
147, 0.00, 0.00, 0.00, -20333.74, 0.00, 0.00, 0.00, 0.00, 0.000, 0.000, 0.000, 14:04:24.970, 1541747064970
148, 0.00, 0.00, 0.00, 13026.01, 0.00, 0.00, 0.00, 0.00, 0.000, 0.000, 0.000, 14:04:24.970, 1541747064970
149, 0.00, 0.00, 0.00, 16264.13, 0.00, 0.00, 0.00, 0.00, 0.000, 0.000, 0.000, 14:04:24.970, 1541747064970
150, 0.00, 0.00, 0.00, -21483.94, 0.00, 0.00, 0.00, 0.00, -0.028, 0.340, 0.948, 14:04:24.970, 1541747064970
151, 0.00, 0.00, 0.00, -41866.34, 0.00, 0.00, 0.00, 0.00, 0.000, 0.000, 0.000, 14:04:24.970, 1541747064970
152, 0.00, 0.00, 0.00, -20646.66, 0.00, 0.00, 0.00, 0.00, 0.000, 0.000, 0.000, 14:04:24.970, 1541747064970
153, 0.00, 0.00, 0.00, 12819.69, 0.00, 0.00, 0.00, 0.00, 0.000, 0.000, 0.000, 14:04:24.970, 1541747064970
154, 0.00, 0.00, 0.00, 16512.78, 0.00, 0.00, 0.00, 0.00, 0.000, 0.000, 0.000, 14:04:24.970, 1541747064970
155, 0.00, 0.00, 0.00, -21103.51, 0.00, 0.00, 0.00, 0.00, 0.000, 0.000, 0.000, 14:04:24.970, 1541747064970
156, 0.00, 0.00, 0.00, -41866.05, 0.00, 0.00, 0.00, 0.00, 0.000, 0.000, 0.000, 14:04:24.970, 1541747064970
157, 0.00, 0.00, 0.00, -20946.80, 0.00, 0.00, 0.00, 0.00, 0.000, 0.000, 0.000, 14:04:24.970, 1541747064970
158, 0.00, 0.00, 0.00, 12611.93, 0.00, 0.00, 0.00, 0.00, 0.000, 0.000, 0.000, 14:04:24.970, 1541747064970
159, 0.00, 0.00, 0.00, 16775.61, 0.00, 0.00, 0.00, 0.00, 0.000, 0.000, 0.000, 14:04:24.970, 1541747064970
160, 0.00, 0.00, 0.00, -20734.91, 0.00, 0.00, 0.00, 0.00, -0.030, 0.338, 0.950, 14:04:24.970, 1541747064970
161, 0.00, 0.00, 0.00, -41878.81, 0.00, 0.00, 0.00, 0.00, 0.000, 0.000, 0.000, 14:04:24.970, 1541747064970
162, 0.00, 0.00, 0.00, -21237.64, 0.00, 0.00, 0.00, 0.00, 0.000, 0.000, 0.000, 14:04:24.971, 1541747064971
163, 0.00, 0.00, 0.00, 12386.26, 0.00, 0.00, 0.00, 0.00, 0.000, 0.000, 0.000, 14:04:24.971, 1541747064971
164, 0.00, 0.00, 0.00, 17005.63, 0.00, 0.00, 0.00, 0.00, 0.000, 0.000, 0.000, 14:04:24.971, 1541747064971
165, 0.00, 0.00, 0.00, -20326.68, 0.00, 0.00, 0.00, 0.00, 0.000, 0.000, 0.000, 14:04:24.971, 1541747064971
166, 0.00, 0.00, 0.00, -41931.13, 0.00, 0.00, 0.00, 0.00, 0.000, 0.000, 0.000, 14:04:24.971, 1541747064971
167, 0.00, 0.00, 0.00, -21534.07, 0.00, 0.00, 0.00, 0.00, 0.000, 0.000, 0.000, 14:04:24.971, 1541747064971
168, 0.00, 0.00, 0.00, 12184.58, 0.00, 0.00, 0.00, 0.00, 0.000, 0.000, 0.000, 14:04:24.971, 1541747064971
169, 0.00, 0.00, 0.00, 17193.14, 0.00, 0.00, 0.00, 0.00, 0.000, 0.000, 0.000, 14:04:24.971, 1541747064971
170, 0.00, 0.00, 0.00, -19958.88, 0.00, 0.00, 0.00, 0.00, -0.030, 0.340, 0.952, 14:04:24.971, 1541747064971
171, 0.00, 0.00, 0.00, -41975.82, 0.00, 0.00, 0.00, 0.00, 0.000, 0.000, 0.000, 14:04:24.971, 1541747064971
172, 0.00, 0.00, 0.00, -21840.94, 0.00, 0.00, 0.00, 0.00, 0.000, 0.000, 0.000, 14:04:24.971, 1541747064971
173, 0.00, 0.00, 0.00, 11963.95, 0.00, 0.00, 0.00, 0.00, 0.000, 0.000, 0.000, 14:04:24.971, 1541747064971
174, 0.00, 0.00, 0.00, 17392.96, 0.00, 0.00, 0.00, 0.00, 0.000, 0.000, 0.000, 14:04:24.972, 1541747064972
175, 0.00, 0.00, 0.00, -19600.62, 0.00, 0.00, 0.00, 0.00, 0.000, 0.000, 0.000, 14:04:24.972, 1541747064972
176, 0.00, 0.00, 0.00, -42029.41, 0.00, 0.00, 0.00, 0.00, 0.000, 0.000, 0.000, 14:04:24.972, 1541747064972
177, 0.00, 0.00, 0.00, -22187.21, 0.00, 0.00, 0.00, 0.00, 0.000, 0.000, 0.000, 14:04:24.972, 1541747064972
178, 0.00, 0.00, 0.00, 11699.04, 0.00, 0.00, 0.00, 0.00, 0.000, 0.000, 0.000, 14:04:24.972, 1541747064972
179, 0.00, 0.00, 0.00, 17616.82, 0.00, 0.00, 0.00, 0.00, 0.000, 0.000, 0.000, 14:04:24.972, 1541747064972
180, 0.00, 0.00, 0.00, -19219.46, 0.00, 0.00, 0.00, 0.00, -0.024, 0.340, 0.948, 14:04:24.972, 1541747064972
181, 0.00, 0.00, 0.00, -42060.26, 0.00, 0.00, 0.00, 0.00, 0.000, 0.000, 0.000, 14:04:24.972, 1541747064972
182, 0.00, 0.00, 0.00, -22545.89, 0.00, 0.00, 0.00, 0.00, 0.000, 0.000, 0.000, 14:04:24.972, 1541747064972
183, 0.00, 0.00, 0.00, 11384.23, 0.00, 0.00, 0.00, 0.00, 0.000, 0.000, 0.000, 14:04:24.972, 1541747064972
184, 0.00, 0.00, 0.00, 17724.69, 0.00, 0.00, 0.00, 0.00, 0.000, 0.000, 0.000, 14:04:24.972, 1541747064972
185, 0.00, 0.00, 0.00, -18911.07, 0.00, 0.00, 0.00, 0.00, 0.000, 0.000, 0.000, 14:04:24.972, 1541747064972
186, 0.00, 0.00, 0.00, -42126.40, 0.00, 0.00, 0.00, 0.00, 0.000, 0.000, 0.000, 14:04:24.972, 1541747064972
187, 0.00, 0.00, 0.00, -22951.08, 0.00, 0.00, 0.00, 0.00, 0.000, 0.000, 0.000, 14:04:24.972, 1541747064972
188, 0.00, 0.00, 0.00, 11043.84, 0.00, 0.00, 0.00, 0.00, 0.000, 0.000, 0.000, 14:04:24.973, 1541747064973
189, 0.00, 0.00, 0.00, 17926.30, 0.00, 0.00, 0.00, 0.00, 0.000, 0.000, 0.000, 14:04:24.973, 1541747064973
190, 0.00, 0.00, 0.00, -18510.62, 0.00, 0.00, 0.00, 0.00, -0.028, 0.338, 0.952, 14:04:24.973, 1541747064973
191, 0.00, 0.00, 0.00, -42160.73, 0.00, 0.00, 0.00, 0.00, 0.000, 0.000, 0.000, 14:04:24.973, 1541747064973
192, 0.00, 0.00, 0.00, -23280.26, 0.00, 0.00, 0.00, 0.00, 0.000, 0.000, 0.000, 14:04:24.973, 1541747064973
193, 0.00, 0.00, 0.00, 10754.65, 0.00, 0.00, 0.00, 0.00, 0.000, 0.000, 0.000, 14:04:24.973, 1541747064973
194, 0.00, 0.00, 0.00, 18042.01, 0.00, 0.00, 0.00, 0.00, 0.000, 0.000, 0.000, 14:04:24.973, 1541747064973
195, 0.00, 0.00, 0.00, -18166.36, 0.00, 0.00, 0.00, 0.00, 0.000, 0.000, 0.000, 14:04:24.973, 1541747064973
196, 0.00, 0.00, 0.00, -42231.43, 0.00, 0.00, 0.00, 0.00, 0.000, 0.000, 0.000, 14:04:24.973, 1541747064973
197, 0.00, 0.00, 0.00, -23604.36, 0.00, 0.00, 0.00, 0.00, 0.000, 0.000, 0.000, 14:04:24.973, 1541747064973
198, 0.00, 0.00, 0.00, 10551.43, 0.00, 0.00, 0.00, 0.00, 0.000, 0.000, 0.000, 14:04:24.973, 1541747064973
199, 0.00, 0.00, 0.00, 18248.92, 0.00, 0.00, 0.00, 0.00, 0.000, 0.000, 0.000, 14:04:24.973, 1541747064973
200, 0.00, 0.00, 0.00, -17756.92, 0.00, 0.00, 0.00, 0.00, 0.000, 0.000, 0.000, 14:04:24.973, 1541747064973
201, 0.00, 0.00, 0.00, -42244.26, 0.00, 0.00, 0.00, 0.00, -0.030, 0.338, 0.950, 14:04:24.973, 1541747064973
202, 0.00, 0.00, 0.00, -23928.03, 0.00, 0.00, 0.00, 0.00, 0.000, 0.000, 0.000, 14:04:24.973, 1541747064973
203, 0.00, 0.00, 0.00, 10272.93, 0.00, 0.00, 0.00, 0.00, 0.000, 0.000, 0.000, 14:04:24.973, 1541747064973
204, 0.00, 0.00, 0.00, 18411.22, 0.00, 0.00, 0.00, 0.00, 0.000, 0.000, 0.000, 14:04:24.973, 1541747064973
205, 0.00, 0.00, 0.00, -17360.58, 0.00, 0.00, 0.00, 0.00, 0.000, 0.000, 0.000, 14:04:24.974, 1541747064974
206, 0.00, 0.00, 0.00, -42134.07, 0.00, 0.00, 0.00, 0.00, 0.000, 0.000, 0.000, 14:04:24.974, 1541747064974
207, 0.00, 0.00, 0.00, -24163.31, 0.00, 0.00, 0.00, 0.00, 0.000, 0.000, 0.000, 14:04:24.974, 1541747064974
208, 0.00, 0.00, 0.00, 10029.79, 0.00, 0.00, 0.00, 0.00, 0.000, 0.000, 0.000, 14:04:24.974, 1541747064974
209, 0.00, 0.00, 0.00, 18609.32, 0.00, 0.00, 0.00, 0.00, 0.000, 0.000, 0.000, 14:04:24.974, 1541747064974
210, 0.00, 0.00, 0.00, -17011.33, 0.00, 0.00, 0.00, 0.00, 0.000, 0.000, 0.000, 14:04:24.974, 1541747064974
211, 0.00, 0.00, 0.00, -42187.38, 0.00, 0.00, 0.00, 0.00, -0.028, 0.338, 0.954, 14:04:24.974, 1541747064974
212, 0.00, 0.00, 0.00, -24512.24, 0.00, 0.00, 0.00, 0.00, 0.000, 0.000, 0.000, 14:04:24.974, 1541747064974
213, 0.00, 0.00, 0.00, 9692.01, 0.00, 0.00, 0.00, 0.00, 0.000, 0.000, 0.000, 14:04:24.974, 1541747064974
214, 0.00, 0.00, 0.00, 18776.98, 0.00, 0.00, 0.00, 0.00, 0.000, 0.000, 0.000, 14:04:24.974, 1541747064974
215, 0.00, 0.00, 0.00, -16499.41, 0.00, 0.00, 0.00, 0.00, 0.000, 0.000, 0.000, 14:04:24.975, 1541747064975
216, 0.00, 0.00, 0.00, -42126.09, 0.00, 0.00, 0.00, 0.00, 0.000, 0.000, 0.000, 14:04:24.975, 1541747064975
217, 0.00, 0.00, 0.00, -24838.13, 0.00, 0.00, 0.00, 0.00, 0.000, 0.000, 0.000, 14:04:24.975, 1541747064975
218, 0.00, 0.00, 0.00, 9425.01, 0.00, 0.00, 0.00, 0.00, 0.000, 0.000, 0.000, 14:04:24.975, 1541747064975
219, 0.00, 0.00, 0.00, 18965.81, 0.00, 0.00, 0.00, 0.00, 0.000, 0.000, 0.000, 14:04:24.975, 1541747064975
220, 0.00, 0.00, 0.00, -16125.26, 0.00, 0.00, 0.00, 0.00, 0.000, 0.000, 0.000, 14:04:24.975, 1541747064975
221, 0.00, 0.00, 0.00, -42131.94, 0.00, 0.00, 0.00, 0.00, -0.030, 0.336, 0.956, 14:04:24.975, 1541747064975
222, 0.00, 0.00, 0.00, -25102.62, 0.00, 0.00, 0.00, 0.00, 0.000, 0.000, 0.000, 14:04:24.975, 1541747064975
223, 0.00, 0.00, 0.00, 9232.95, 0.00, 0.00, 0.00, 0.00, 0.000, 0.000, 0.000, 14:04:24.975, 1541747064975
224, 0.00, 0.00, 0.00, 19106.49, 0.00, 0.00, 0.00, 0.00, 0.000, 0.000, 0.000, 14:04:25.447, 1541747065447
225, 0.00, 0.00, 0.00, -15791.44, 0.00, 0.00, 0.00, 0.00, 0.000, 0.000, 0.000, 14:04:25.448, 1541747065448
226, 0.00, 0.00, 0.00, -42112.27, 0.00, 0.00, 0.00, 0.00, 0.000, 0.000, 0.000, 14:04:25.448, 1541747065448
227, 0.00, 0.00, 0.00, -25379.69, 0.00, 0.00, 0.00, 0.00, 0.000, 0.000, 0.000, 14:04:25.448, 1541747065448
228, 0.00, 0.00, 0.00, 8982.14, 0.00, 0.00, 0.00, 0.00, 0.000, 0.000, 0.000, 14:04:25.448, 1541747065448
229, 0.00, 0.00, 0.00, 19222.50, 0.00, 0.00, 0.00, 0.00, 0.000, 0.000, 0.000, 14:04:25.448, 1541747065448
230, 0.00, 0.00, 0.00, -15417.99, 0.00, 0.00, 0.00, 0.00, 0.000, 0.000, 0.000, 14:04:25.448, 1541747065448
231, 0.00, 0.00, 0.00, -42090.77, 0.00, 0.00, 0.00, 0.00, -0.026, 0.338, 0.954, 14:04:25.448, 1541747065448
232, 0.00, 0.00, 0.00, -25716.98, 0.00, 0.00, 0.00, 0.00, 0.000, 0.000, 0.000, 14:04:25.448, 1541747065448
233, 0.00, 0.00, 0.00, 8686.71, 0.00, 0.00, 0.00, 0.00, 0.000, 0.000, 0.000, 14:04:25.448, 1541747065448
234, 0.00, 0.00, 0.00, 19367.03, 0.00, 0.00, 0.00, 0.00, 0.000, 0.000, 0.000, 14:04:25.448, 1541747065448
235, 0.00, 0.00, 0.00, -15062.66, 0.00, 0.00, 0.00, 0.00, 0.000, 0.000, 0.000, 14:04:25.448, 1541747065448
236, 0.00, 0.00, 0.00, -42111.60, 0.00, 0.00, 0.00, 0.00, 0.000, 0.000, 0.000, 14:04:25.448, 1541747065448
237, 0.00, 0.00, 0.00, -26064.61, 0.00, 0.00, 0.00, 0.00, 0.000, 0.000, 0.000, 14:04:25.448, 1541747065448
238, 0.00, 0.00, 0.00, 8341.56, 0.00, 0.00, 0.00, 0.00, 0.000, 0.000, 0.000, 14:04:25.448, 1541747065448
239, 0.00, 0.00, 0.00, 19548.99, 0.00, 0.00, 0.00, 0.00, 0.000, 0.000, 0.000, 14:04:25.448, 1541747065448
240, 0.00, 0.00, 0.00, -14558.70, 0.00, 0.00, 0.00, 0.00, 0.000, 0.000, 0.000, 14:04:25.448, 1541747065448
241, 0.00, 0.00, 0.00, -42054.25, 0.00, 0.00, 0.00, 0.00, -0.024, 0.336, 0.954, 14:04:25.448, 1541747065448
242, 0.00, 0.00, 0.00, -26343.74, 0.00, 0.00, 0.00, 0.00, 0.000, 0.000, 0.000, 14:04:25.448, 1541747065448
243, 0.00, 0.00, 0.00, 8153.33, 0.00, 0.00, 0.00, 0.00, 0.000, 0.000, 0.000, 14:04:25.448, 1541747065448
244, 0.00, 0.00, 0.00, 19702.55, 0.00, 0.00, 0.00, 0.00, 0.000, 0.000, 0.000, 14:04:25.448, 1541747065448
245, 0.00, 0.00, 0.00, -14238.64, 0.00, 0.00, 0.00, 0.00, 0.000, 0.000, 0.000, 14:04:25.448, 1541747065448
246, 0.00, 0.00, 0.00, -42014.17, 0.00, 0.00, 0.00, 0.00, 0.000, 0.000, 0.000, 14:04:25.448, 1541747065448
247, 0.00, 0.00, 0.00, -26591.18, 0.00, 0.00, 0.00, 0.00, 0.000, 0.000, 0.000, 14:04:25.449, 1541747065449
248, 0.00, 0.00, 0.00, 7858.29, 0.00, 0.00, 0.00, 0.00, 0.000, 0.000, 0.000, 14:04:25.449, 1541747065449
249, 0.00, 0.00, 0.00, 19806.08, 0.00, 0.00, 0.00, 0.00, 0.000, 0.000, 0.000, 14:04:25.449, 1541747065449
250, 0.00, 0.00, 0.00, -13889.98, 0.00, 0.00, 0.00, 0.00, 0.000, 0.000, 0.000, 14:04:25.449, 1541747065449
251, 0.00, 0.00, 0.00, -41990.88, 0.00, 0.00, 0.00, 0.00, -0.024, 0.332, 0.954, 14:04:25.449, 1541747065449
252, 0.00, 0.00, 0.00, -26887.94, 0.00, 0.00, 0.00, 0.00, 0.000, 0.000, 0.000, 14:04:25.449, 1541747065449
253, 0.00, 0.00, 0.00, 7589.18, 0.00, 0.00, 0.00, 0.00, 0.000, 0.000, 0.000, 14:04:25.449, 1541747065449
254, 0.00, 0.00, 0.00, 19930.94, 0.00, 0.00, 0.00, 0.00, 0.000, 0.000, 0.000, 14:04:25.449, 1541747065449
255, 0.00, 0.00, 0.00, -13408.23, 0.00, 0.00, 0.00, 0.00, 0.000, 0.000, 0.000, 14:04:25.449, 1541747065449
0, 0.00, 0.00, 0.00, -41862.67, 0.00, 0.00, 0.00, 0.00, 0.000, 0.000, 0.000, 14:04:25.449, 1541747065449
1, 0.00, 0.00, 0.00, -27169.77, 0.00, 0.00, 0.00, 0.00, 0.000, 0.000, 0.000, 14:04:25.449, 1541747065449
2, 0.00, 0.00, 0.00, 7245.50, 0.00, 0.00, 0.00, 0.00, 0.000, 0.000, 0.000, 14:04:25.449, 1541747065449
3, 0.00, 0.00, 0.00, 20004.54, 0.00, 0.00, 0.00, 0.00, 0.000, 0.000, 0.000, 14:04:25.449, 1541747065449
4, 0.00, 0.00, 0.00, -13053.78, 0.00, 0.00, 0.00, 0.00, 0.000, 0.000, 0.000, 14:04:25.449, 1541747065449
5, 0.00, 0.00, 0.00, -41843.31, 0.00, 0.00, 0.00, 0.00, -0.024, 0.334, 0.960, 14:04:25.449, 1541747065449
6, 0.00, 0.00, 0.00, -27534.04, 0.00, 0.00, 0.00, 0.00, 0.000, 0.000, 0.000, 14:04:25.449, 1541747065449
7, 0.00, 0.00, 0.00, 6952.13, 0.00, 0.00, 0.00, 0.00, 0.000, 0.000, 0.000, 14:04:25.449, 1541747065449
8, 0.00, 0.00, 0.00, 20204.43, 0.00, 0.00, 0.00, 0.00, 0.000, 0.000, 0.000, 14:04:25.449, 1541747065449
9, 0.00, 0.00, 0.00, -12571.45, 0.00, 0.00, 0.00, 0.00, 0.000, 0.000, 0.000, 14:04:25.449, 1541747065449
10, 0.00, 0.00, 0.00, -41823.15, 0.00, 0.00, 0.00, 0.00, 0.000, 0.000, 0.000, 14:04:25.449, 1541747065449
11, 0.00, 0.00, 0.00, -27842.09, 0.00, 0.00, 0.00, 0.00, 0.000, 0.000, 0.000, 14:04:25.449, 1541747065449
12, 0.00, 0.00, 0.00, 6682.25, 0.00, 0.00, 0.00, 0.00, 0.000, 0.000, 0.000, 14:04:25.450, 1541747065450
13, 0.00, 0.00, 0.00, 20327.75, 0.00, 0.00, 0.00, 0.00, 0.000, 0.000, 0.000, 14:04:25.450, 1541747065450
14, 0.00, 0.00, 0.00, -12226.43, 0.00, 0.00, 0.00, 0.00, 0.000, 0.000, 0.000, 14:04:25.450, 1541747065450
15, 0.00, 0.00, 0.00, -41775.34, 0.00, 0.00, 0.00, 0.00, 0.000, 0.000, 0.000, 14:04:25.450, 1541747065450
16, 0.00, 0.00, 0.00, -28044.98, 0.00, 0.00, 0.00, 0.00, -0.026, 0.334, 0.958, 14:04:25.450, 1541747065450
17, 0.00, 0.00, 0.00, 6421.28, 0.00, 0.00, 0.00, 0.00, 0.000, 0.000, 0.000, 14:04:25.450, 1541747065450
18, 0.00, 0.00, 0.00, 20417.67, 0.00, 0.00, 0.00, 0.00, 0.000, 0.000, 0.000, 14:04:25.450, 1541747065450
19, 0.00, 0.00, 0.00, -11858.65, 0.00, 0.00, 0.00, 0.00, 0.000, 0.000, 0.000, 14:04:25.450, 1541747065450
20, 0.00, 0.00, 0.00, -41732.47, 0.00, 0.00, 0.00, 0.00, 0.000, 0.000, 0.000, 14:04:25.450, 1541747065450
21, 0.00, 0.00, 0.00, -28331.88, 0.00, 0.00, 0.00, 0.00, 0.000, 0.000, 0.000, 14:04:25.450, 1541747065450
22, 0.00, 0.00, 0.00, 6149.21, 0.00, 0.00, 0.00, 0.00, 0.000, 0.000, 0.000, 14:04:25.450, 1541747065450
23, 0.00, 0.00, 0.00, 20538.59, 0.00, 0.00, 0.00, 0.00, 0.000, 0.000, 0.000, 14:04:25.450, 1541747065450
24, 0.00, 0.00, 0.00, -11396.06, 0.00, 0.00, 0.00, 0.00, 0.000, 0.000, 0.000, 14:04:25.450, 1541747065450
25, 0.00, 0.00, 0.00, -41584.12, 0.00, 0.00, 0.00, 0.00, 0.000, 0.000, 0.000, 14:04:25.451, 1541747065451
26, 0.00, 0.00, 0.00, -28596.93, 0.00, 0.00, 0.00, 0.00, -0.030, 0.332, 0.958, 14:04:25.451, 1541747065451
27, 0.00, 0.00, 0.00, 5847.10, 0.00, 0.00, 0.00, 0.00, 0.000, 0.000, 0.000, 14:04:25.451, 1541747065451
28, 0.00, 0.00, 0.00, 20632.13, 0.00, 0.00, 0.00, 0.00, 0.000, 0.000, 0.000, 14:04:25.452, 1541747065452
29, 0.00, 0.00, 0.00, -11006.09, 0.00, 0.00, 0.00, 0.00, 0.000, 0.000, 0.000, 14:04:25.452, 1541747065452
30, 0.00, 0.00, 0.00, -41517.63, 0.00, 0.00, 0.00, 0.00, 0.000, 0.000, 0.000, 14:04:25.452, 1541747065452
31, 0.00, 0.00, 0.00, -28880.78, 0.00, 0.00, 0.00, 0.00, 0.000, 0.000, 0.000, 14:04:25.452, 1541747065452
32, 0.00, 0.00, 0.00, 5570.01, 0.00, 0.00, 0.00, 0.00, 0.000, 0.000, 0.000, 14:04:25.452, 1541747065452
33, 0.00, 0.00, 0.00, 20778.99, 0.00, 0.00, 0.00, 0.00, 0.000, 0.000, 0.000, 14:04:25.452, 1541747065452
34, 0.00, 0.00, 0.00, -10546.36, 0.00, 0.00, 0.00, 0.00, 0.000, 0.000, 0.000, 14:04:25.452, 1541747065452
35, 0.00, 0.00, 0.00, -41415.86, 0.00, 0.00, 0.00, 0.00, 0.000, 0.000, 0.000, 14:04:25.452, 1541747065452
36, 0.00, 0.00, 0.00, -29177.77, 0.00, 0.00, 0.00, 0.00, -0.026, 0.332, 0.952, 14:04:25.454, 1541747065454
37, 0.00, 0.00, 0.00, 5209.83, 0.00, 0.00, 0.00, 0.00, 0.000, 0.000, 0.000, 14:04:25.454, 1541747065454
38, 0.00, 0.00, 0.00, 20818.62, 0.00, 0.00, 0.00, 0.00, 0.000, 0.000, 0.000, 14:04:25.454, 1541747065454
39, 0.00, 0.00, 0.00, -10228.43, 0.00, 0.00, 0.00, 0.00, 0.000, 0.000, 0.000, 14:04:25.454, 1541747065454
40, 0.00, 0.00, 0.00, -41372.34, 0.00, 0.00, 0.00, 0.00, 0.000, 0.000, 0.000, 14:04:25.454, 1541747065454
41, 0.00, 0.00, 0.00, -29449.63, 0.00, 0.00, 0.00, 0.00, 0.000, 0.000, 0.000, 14:04:25.455, 1541747065455
42, 0.00, 0.00, 0.00, 4992.78, 0.00, 0.00, 0.00, 0.00, 0.000, 0.000, 0.000, 14:04:25.455, 1541747065455
43, 0.00, 0.00, 0.00, 20900.24, 0.00, 0.00, 0.00, 0.00, 0.000, 0.000, 0.000, 14:04:25.455, 1541747065455
44, 0.00, 0.00, 0.00, -9848.38, 0.00, 0.00, 0.00, 0.00, 0.000, 0.000, 0.000, 14:04:25.455, 1541747065455
45, 0.00, 0.00, 0.00, -41315.12, 0.00, 0.00, 0.00, 0.00, 0.000, 0.000, 0.000, 14:04:25.455, 1541747065455
46, 0.00, 0.00, 0.00, -29773.71, 0.00, 0.00, 0.00, 0.00, -0.024, 0.332, 0.954, 14:04:25.455, 1541747065455
47, 0.00, 0.00, 0.00, 4636.53, 0.00, 0.00, 0.00, 0.00, 0.000, 0.000, 0.000, 14:04:25.455, 1541747065455
48, 0.00, 0.00, 0.00, 20953.22, 0.00, 0.00, 0.00, 0.00, 0.000, 0.000, 0.000, 14:04:25.455, 1541747065455
49, 0.00, 0.00, 0.00, -9453.38, 0.00, 0.00, 0.00, 0.00, 0.000, 0.000, 0.000, 14:04:25.455, 1541747065455
50, 0.00, 0.00, 0.00, -41200.50, 0.00, 0.00, 0.00, 0.00, 0.000, 0.000, 0.000, 14:04:25.455, 1541747065455
51, 0.00, 0.00, 0.00, -29972.17, 0.00, 0.00, 0.00, 0.00, 0.000, 0.000, 0.000, 14:04:25.455, 1541747065455
52, 0.00, 0.00, 0.00, 4369.05, 0.00, 0.00, 0.00, 0.00, 0.000, 0.000, 0.000, 14:04:25.455, 1541747065455
53, 0.00, 0.00, 0.00, 20999.37, 0.00, 0.00, 0.00, 0.00, 0.000, 0.000, 0.000, 14:04:25.455, 1541747065455
54, 0.00, 0.00, 0.00, -9063.21, 0.00, 0.00, 0.00, 0.00, 0.000, 0.000, 0.000, 14:04:25.455, 1541747065455
55, 0.00, 0.00, 0.00, -41114.13, 0.00, 0.00, 0.00, 0.00, 0.000, 0.000, 0.000, 14:04:25.455, 1541747065455
56, 0.00, 0.00, 0.00, -30337.04, 0.00, 0.00, 0.00, 0.00, -0.026, 0.334, 0.954, 14:04:25.456, 1541747065456
57, 0.00, 0.00, 0.00, 3951.32, 0.00, 0.00, 0.00, 0.00, 0.000, 0.000, 0.000, 14:04:25.456, 1541747065456
58, 0.00, 0.00, 0.00, 21118.84, 0.00, 0.00, 0.00, 0.00, 0.000, 0.000, 0.000, 14:04:25.456, 1541747065456
59, 0.00, 0.00, 0.00, -8577.21, 0.00, 0.00, 0.00, 0.00, 0.000, 0.000, 0.000, 14:04:25.456, 1541747065456
60, 0.00, 0.00, 0.00, -41059.50, 0.00, 0.00, 0.00, 0.00, 0.000, 0.000, 0.000, 14:04:25.456, 1541747065456
61, 0.00, 0.00, 0.00, -30597.91, 0.00, 0.00, 0.00, 0.00, 0.000, 0.000, 0.000, 14:04:25.456, 1541747065456
62, 0.00, 0.00, 0.00, 3733.23, 0.00, 0.00, 0.00, 0.00, 0.000, 0.000, 0.000, 14:04:25.456, 1541747065456
63, 0.00, 0.00, 0.00, 21234.58, 0.00, 0.00, 0.00, 0.00, 0.000, 0.000, 0.000, 14:04:25.456, 1541747065456
64, 0.00, 0.00, 0.00, -8189.50, 0.00, 0.00, 0.00, 0.00, 0.000, 0.000, 0.000, 14:04:25.456, 1541747065456
65, 0.00, 0.00, 0.00, -40885.68, 0.00, 0.00, 0.00, 0.00, 0.000, 0.000, 0.000, 14:04:25.456, 1541747065456
66, 0.00, 0.00, 0.00, -30754.59, 0.00, 0.00, 0.00, 0.00, -0.030, 0.330, 0.958, 14:04:25.456, 1541747065456
67, 0.00, 0.00, 0.00, 3600.96, 0.00, 0.00, 0.00, 0.00, 0.000, 0.000, 0.000, 14:04:25.456, 1541747065456
68, 0.00, 0.00, 0.00, 21423.39, 0.00, 0.00, 0.00, 0.00, 0.000, 0.000, 0.000, 14:04:25.456, 1541747065456
69, 0.00, 0.00, 0.00, -7679.54, 0.00, 0.00, 0.00, 0.00, 0.000, 0.000, 0.000, 14:04:25.457, 1541747065457
70, 0.00, 0.00, 0.00, -40681.58, 0.00, 0.00, 0.00, 0.00, 0.000, 0.000, 0.000, 14:04:25.457, 1541747065457
71, 0.00, 0.00, 0.00, -30944.67, 0.00, 0.00, 0.00, 0.00, 0.000, 0.000, 0.000, 14:04:25.457, 1541747065457
72, 0.00, 0.00, 0.00, 3311.88, 0.00, 0.00, 0.00, 0.00, 0.000, 0.000, 0.000, 14:04:25.457, 1541747065457
73, 0.00, 0.00, 0.00, 21433.49, 0.00, 0.00, 0.00, 0.00, 0.000, 0.000, 0.000, 14:04:25.457, 1541747065457
74, 0.00, 0.00, 0.00, -7340.67, 0.00, 0.00, 0.00, 0.00, 0.000, 0.000, 0.000, 14:04:25.457, 1541747065457
75, 0.00, 0.00, 0.00, -40656.79, 0.00, 0.00, 0.00, 0.00, 0.000, 0.000, 0.000, 14:04:25.457, 1541747065457
76, 0.00, 0.00, 0.00, -31411.53, 0.00, 0.00, 0.00, 0.00, -0.028, 0.334, 0.956, 14:04:25.457, 1541747065457
77, 0.00, 0.00, 0.00, 2640.23, 0.00, 0.00, 0.00, 0.00, 0.000, 0.000, 0.000, 14:04:25.457, 1541747065457
78, 0.00, 0.00, 0.00, 21251.21, 0.00, 0.00, 0.00, 0.00, 0.000, 0.000, 0.000, 14:04:25.457, 1541747065457
79, 0.00, 0.00, 0.00, -7061.25, 0.00, 0.00, 0.00, 0.00, 0.000, 0.000, 0.000, 14:04:25.458, 1541747065458
80, 0.00, 0.00, 0.00, -40650.27, 0.00, 0.00, 0.00, 0.00, 0.000, 0.000, 0.000, 14:04:25.458, 1541747065458
81, 0.00, 0.00, 0.00, -31705.63, 0.00, 0.00, 0.00, 0.00, 0.000, 0.000, 0.000, 14:04:25.458, 1541747065458
82, 0.00, 0.00, 0.00, 2435.18, 0.00, 0.00, 0.00, 0.00, 0.000, 0.000, 0.000, 14:04:25.458, 1541747065458
83, 0.00, 0.00, 0.00, 21484.29, 0.00, 0.00, 0.00, 0.00, 0.000, 0.000, 0.000, 14:04:25.458, 1541747065458
84, 0.00, 0.00, 0.00, -6522.22, 0.00, 0.00, 0.00, 0.00, 0.000, 0.000, 0.000, 14:04:25.458, 1541747065458
85, 0.00, 0.00, 0.00, -40451.25, 0.00, 0.00, 0.00, 0.00, 0.000, 0.000, 0.000, 14:04:25.458, 1541747065458
86, 0.00, 0.00, 0.00, -31905.59, 0.00, 0.00, 0.00, 0.00, 0.000, 0.000, 0.000, 14:04:25.458, 1541747065458
87, 0.00, 0.00, 0.00, 2165.86, 0.00, 0.00, 0.00, 0.00, -0.030, 0.330, 0.952, 14:04:25.458, 1541747065458
88, 0.00, 0.00, 0.00, 21491.11, 0.00, 0.00, 0.00, 0.00, 0.000, 0.000, 0.000, 14:04:25.458, 1541747065458
89, 0.00, 0.00, 0.00, -6203.46, 0.00, 0.00, 0.00, 0.00, 0.000, 0.000, 0.000, 14:04:25.930, 1541747065930
90, 0.00, 0.00, 0.00, -40387.68, 0.00, 0.00, 0.00, 0.00, 0.000, 0.000, 0.000, 14:04:25.930, 1541747065930
91, 0.00, 0.00, 0.00, -32127.10, 0.00, 0.00, 0.00, 0.00, 0.000, 0.000, 0.000, 14:04:25.930, 1541747065930
92, 0.00, 0.00, 0.00, 1976.41, 0.00, 0.00, 0.00, 0.00, 0.000, 0.000, 0.000, 14:04:25.930, 1541747065930
93, 0.00, 0.00, 0.00, 21549.74, 0.00, 0.00, 0.00, 0.00, 0.000, 0.000, 0.000, 14:04:25.930, 1541747065930
94, 0.00, 0.00, 0.00, -5811.41, 0.00, 0.00, 0.00, 0.00, 0.000, 0.000, 0.000, 14:04:25.930, 1541747065930
95, 0.00, 0.00, 0.00, -40216.66, 0.00, 0.00, 0.00, 0.00, 0.000, 0.000, 0.000, 14:04:25.930, 1541747065930
96, 0.00, 0.00, 0.00, -32440.31, 0.00, 0.00, 0.00, 0.00, 0.000, 0.000, 0.000, 14:04:25.930, 1541747065930
97, 0.00, 0.00, 0.00, 1540.88, 0.00, 0.00, 0.00, 0.00, -0.024, 0.332, 0.954, 14:04:25.930, 1541747065930
98, 0.00, 0.00, 0.00, 21539.17, 0.00, 0.00, 0.00, 0.00, 0.000, 0.000, 0.000, 14:04:25.930, 1541747065930
99, 0.00, 0.00, 0.00, -5351.07, 0.00, 0.00, 0.00, 0.00, 0.000, 0.000, 0.000, 14:04:25.930, 1541747065930
100, 0.00, 0.00, 0.00, -39991.61, 0.00, 0.00, 0.00, 0.00, 0.000, 0.000, 0.000, 14:04:25.930, 1541747065930
101, 0.00, 0.00, 0.00, -32603.95, 0.00, 0.00, 0.00, 0.00, 0.000, 0.000, 0.000, 14:04:25.930, 1541747065930
102, 0.00, 0.00, 0.00, 1292.76, 0.00, 0.00, 0.00, 0.00, 0.000, 0.000, 0.000, 14:04:25.930, 1541747065930
103, 0.00, 0.00, 0.00, 21622.99, 0.00, 0.00, 0.00, 0.00, 0.000, 0.000, 0.000, 14:04:25.930, 1541747065930
104, 0.00, 0.00, 0.00, -4983.25, 0.00, 0.00, 0.00, 0.00, 0.000, 0.000, 0.000, 14:04:25.930, 1541747065930
105, 0.00, 0.00, 0.00, -39859.48, 0.00, 0.00, 0.00, 0.00, 0.000, 0.000, 0.000, 14:04:25.930, 1541747065930
106, 0.00, 0.00, 0.00, -32907.18, 0.00, 0.00, 0.00, 0.00, 0.000, 0.000, 0.000, 14:04:25.930, 1541747065930
107, 0.00, 0.00, 0.00, 917.38, 0.00, 0.00, 0.00, 0.00, -0.020, 0.332, 0.952, 14:04:25.930, 1541747065930
108, 0.00, 0.00, 0.00, 21637.18, 0.00, 0.00, 0.00, 0.00, 0.000, 0.000, 0.000, 14:04:25.930, 1541747065930
109, 0.00, 0.00, 0.00, -4519.88, 0.00, 0.00, 0.00, 0.00, 0.000, 0.000, 0.000, 14:04:25.930, 1541747065930
110, 0.00, 0.00, 0.00, -39727.92, 0.00, 0.00, 0.00, 0.00, 0.000, 0.000, 0.000, 14:04:25.930, 1541747065930
111, 0.00, 0.00, 0.00, -33145.91, 0.00, 0.00, 0.00, 0.00, 0.000, 0.000, 0.000, 14:04:25.930, 1541747065930
112, 0.00, 0.00, 0.00, 586.96, 0.00, 0.00, 0.00, 0.00, 0.000, 0.000, 0.000, 14:04:25.930, 1541747065930
113, 0.00, 0.00, 0.00, 21669.61, 0.00, 0.00, 0.00, 0.00, 0.000, 0.000, 0.000, 14:04:25.931, 1541747065931
114, 0.00, 0.00, 0.00, -4144.97, 0.00, 0.00, 0.00, 0.00, 0.000, 0.000, 0.000, 14:04:25.931, 1541747065931
115, 0.00, 0.00, 0.00, -39561.60, 0.00, 0.00, 0.00, 0.00, 0.000, 0.000, 0.000, 14:04:25.931, 1541747065931
116, 0.00, 0.00, 0.00, -33297.13, 0.00, 0.00, 0.00, 0.00, 0.000, 0.000, 0.000, 14:04:25.931, 1541747065931
117, 0.00, 0.00, 0.00, 373.81, 0.00, 0.00, 0.00, 0.00, -0.022, 0.334, 0.948, 14:04:25.931, 1541747065931
118, 0.00, 0.00, 0.00, 21718.52, 0.00, 0.00, 0.00, 0.00, 0.000, 0.000, 0.000, 14:04:25.931, 1541747065931
119, 0.00, 0.00, 0.00, -3848.43, 0.00, 0.00, 0.00, 0.00, 0.000, 0.000, 0.000, 14:04:25.931, 1541747065931
120, 0.00, 0.00, 0.00, -39446.91, 0.00, 0.00, 0.00, 0.00, 0.000, 0.000, 0.000, 14:04:25.931, 1541747065931
121, 0.00, 0.00, 0.00, -33537.54, 0.00, 0.00, 0.00, 0.00, 0.000, 0.000, 0.000, 14:04:25.931, 1541747065931
122, 0.00, 0.00, 0.00, 117.53, 0.00, 0.00, 0.00, 0.00, 0.000, 0.000, 0.000, 14:04:25.931, 1541747065931
123, 0.00, 0.00, 0.00, 21742.84, 0.00, 0.00, 0.00, 0.00, 0.000, 0.000, 0.000, 14:04:25.931, 1541747065931
124, 0.00, 0.00, 0.00, -3302.05, 0.00, 0.00, 0.00, 0.00, 0.000, 0.000, 0.000, 14:04:25.931, 1541747065931
125, 0.00, 0.00, 0.00, -39180.06, 0.00, 0.00, 0.00, 0.00, 0.000, 0.000, 0.000, 14:04:25.931, 1541747065931
126, 0.00, 0.00, 0.00, -33740.23, 0.00, 0.00, 0.00, 0.00, 0.000, 0.000, 0.000, 14:04:25.931, 1541747065931
127, 0.00, 0.00, 0.00, -243.05, 0.00, 0.00, 0.00, 0.00, -0.026, 0.336, 0.950, 14:04:25.931, 1541747065931
128, 0.00, 0.00, 0.00, 21725.18, 0.00, 0.00, 0.00, 0.00, 0.000, 0.000, 0.000, 14:04:25.931, 1541747065931
129, 0.00, 0.00, 0.00, -2942.88, 0.00, 0.00, 0.00, 0.00, 0.000, 0.000, 0.000, 14:04:25.931, 1541747065931
130, 0.00, 0.00, 0.00, -39027.11, 0.00, 0.00, 0.00, 0.00, 0.000, 0.000, 0.000, 14:04:25.931, 1541747065931
131, 0.00, 0.00, 0.00, -33990.72, 0.00, 0.00, 0.00, 0.00, 0.000, 0.000, 0.000, 14:04:25.931, 1541747065931
132, 0.00, 0.00, 0.00, -526.05, 0.00, 0.00, 0.00, 0.00, 0.000, 0.000, 0.000, 14:04:25.931, 1541747065931
133, 0.00, 0.00, 0.00, 21826.75, 0.00, 0.00, 0.00, 0.00, 0.000, 0.000, 0.000, 14:04:25.931, 1541747065931
134, 0.00, 0.00, 0.00, -2498.19, 0.00, 0.00, 0.00, 0.00, 0.000, 0.000, 0.000, 14:04:25.931, 1541747065931
135, 0.00, 0.00, 0.00, -38881.89, 0.00, 0.00, 0.00, 0.00, 0.000, 0.000, 0.000, 14:04:25.931, 1541747065931
136, 0.00, 0.00, 0.00, -34225.93, 0.00, 0.00, 0.00, 0.00, 0.000, 0.000, 0.000, 14:04:25.931, 1541747065931
137, 0.00, 0.00, 0.00, -877.33, 0.00, 0.00, 0.00, 0.00, -0.028, 0.342, 0.950, 14:04:25.932, 1541747065932
138, 0.00, 0.00, 0.00, 21784.26, 0.00, 0.00, 0.00, 0.00, 0.000, 0.000, 0.000, 14:04:25.932, 1541747065932
139, 0.00, 0.00, 0.00, -2162.91, 0.00, 0.00, 0.00, 0.00, 0.000, 0.000, 0.000, 14:04:25.932, 1541747065932
140, 0.00, 0.00, 0.00, -38752.85, 0.00, 0.00, 0.00, 0.00, 0.000, 0.000, 0.000, 14:04:25.932, 1541747065932
141, 0.00, 0.00, 0.00, -34431.25, 0.00, 0.00, 0.00, 0.00, 0.000, 0.000, 0.000, 14:04:25.932, 1541747065932
142, 0.00, 0.00, 0.00, -1144.01, 0.00, 0.00, 0.00, 0.00, 0.000, 0.000, 0.000, 14:04:25.932, 1541747065932
143, 0.00, 0.00, 0.00, 21744.18, 0.00, 0.00, 0.00, 0.00, 0.000, 0.000, 0.000, 14:04:25.932, 1541747065932
144, 0.00, 0.00, 0.00, -1878.46, 0.00, 0.00, 0.00, 0.00, 0.000, 0.000, 0.000, 14:04:25.932, 1541747065932
145, 0.00, 0.00, 0.00, -38608.12, 0.00, 0.00, 0.00, 0.00, 0.000, 0.000, 0.000, 14:04:25.932, 1541747065932
146, 0.00, 0.00, 0.00, -34718.63, 0.00, 0.00, 0.00, 0.00, 0.000, 0.000, 0.000, 14:04:25.932, 1541747065932
147, 0.00, 0.00, 0.00, -1565.49, 0.00, 0.00, 0.00, 0.00, -0.030, 0.342, 0.946, 14:04:25.932, 1541747065932
148, 0.00, 0.00, 0.00, 21645.23, 0.00, 0.00, 0.00, 0.00, 0.000, 0.000, 0.000, 14:04:25.932, 1541747065932
149, 0.00, 0.00, 0.00, -1478.99, 0.00, 0.00, 0.00, 0.00, 0.000, 0.000, 0.000, 14:04:25.932, 1541747065932
150, 0.00, 0.00, 0.00, -38432.41, 0.00, 0.00, 0.00, 0.00, 0.000, 0.000, 0.000, 14:04:25.932, 1541747065932
151, 0.00, 0.00, 0.00, -34966.15, 0.00, 0.00, 0.00, 0.00, 0.000, 0.000, 0.000, 14:04:25.932, 1541747065932
152, 0.00, 0.00, 0.00, -1948.47, 0.00, 0.00, 0.00, 0.00, 0.000, 0.000, 0.000, 14:04:25.932, 1541747065932
153, 0.00, 0.00, 0.00, 21624.44, 0.00, 0.00, 0.00, 0.00, 0.000, 0.000, 0.000, 14:04:25.932, 1541747065932
154, 0.00, 0.00, 0.00, -1139.49, 0.00, 0.00, 0.00, 0.00, 0.000, 0.000, 0.000, 14:04:25.932, 1541747065932
155, 0.00, 0.00, 0.00, -38326.22, 0.00, 0.00, 0.00, 0.00, 0.000, 0.000, 0.000, 14:04:25.932, 1541747065932
156, 0.00, 0.00, 0.00, -35267.83, 0.00, 0.00, 0.00, 0.00, 0.000, 0.000, 0.000, 14:04:25.932, 1541747065932
157, 0.00, 0.00, 0.00, -2262.53, 0.00, 0.00, 0.00, 0.00, -0.022, 0.340, 0.946, 14:04:25.932, 1541747065932
158, 0.00, 0.00, 0.00, 21591.56, 0.00, 0.00, 0.00, 0.00, 0.000, 0.000, 0.000, 14:04:25.932, 1541747065932
159, 0.00, 0.00, 0.00, -774.87, 0.00, 0.00, 0.00, 0.00, 0.000, 0.000, 0.000, 14:04:25.932, 1541747065932
160, 0.00, 0.00, 0.00, -38194.95, 0.00, 0.00, 0.00, 0.00, 0.000, 0.000, 0.000, 14:04:25.932, 1541747065932
161, 0.00, 0.00, 0.00, -35525.23, 0.00, 0.00, 0.00, 0.00, 0.000, 0.000, 0.000, 14:04:25.932, 1541747065932
162, 0.00, 0.00, 0.00, -2612.09, 0.00, 0.00, 0.00, 0.00, 0.000, 0.000, 0.000, 14:04:25.932, 1541747065932
163, 0.00, 0.00, 0.00, 21587.18, 0.00, 0.00, 0.00, 0.00, 0.000, 0.000, 0.000, 14:04:25.932, 1541747065932
164, 0.00, 0.00, 0.00, -419.41, 0.00, 0.00, 0.00, 0.00, 0.000, 0.000, 0.000, 14:04:25.933, 1541747065933
165, 0.00, 0.00, 0.00, -38010.05, 0.00, 0.00, 0.00, 0.00, 0.000, 0.000, 0.000, 14:04:25.933, 1541747065933
166, 0.00, 0.00, 0.00, -35645.58, 0.00, 0.00, 0.00, 0.00, 0.000, 0.000, 0.000, 14:04:25.933, 1541747065933
167, 0.00, 0.00, 0.00, -2846.56, 0.00, 0.00, 0.00, 0.00, 0.000, 0.000, 0.000, 14:04:25.933, 1541747065933
168, 0.00, 0.00, 0.00, 21488.83, 0.00, 0.00, 0.00, 0.00, -0.020, 0.338, 0.950, 14:04:25.933, 1541747065933
169, 0.00, 0.00, 0.00, -114.75, 0.00, 0.00, 0.00, 0.00, 0.000, 0.000, 0.000, 14:04:25.933, 1541747065933
170, 0.00, 0.00, 0.00, -37830.48, 0.00, 0.00, 0.00, 0.00, 0.000, 0.000, 0.000, 14:04:25.933, 1541747065933
171, 0.00, 0.00, 0.00, -35908.70, 0.00, 0.00, 0.00, 0.00, 0.000, 0.000, 0.000, 14:04:25.933, 1541747065933
172, 0.00, 0.00, 0.00, -3226.16, 0.00, 0.00, 0.00, 0.00, 0.000, 0.000, 0.000, 14:04:25.933, 1541747065933
173, 0.00, 0.00, 0.00, 21448.58, 0.00, 0.00, 0.00, 0.00, 0.000, 0.000, 0.000, 14:04:25.933, 1541747065933
174, 0.00, 0.00, 0.00, 377.88, 0.00, 0.00, 0.00, 0.00, 0.000, 0.000, 0.000, 14:04:25.933, 1541747065933
175, 0.00, 0.00, 0.00, -37553.07, 0.00, 0.00, 0.00, 0.00, 0.000, 0.000, 0.000, 14:04:25.933, 1541747065933
176, 0.00, 0.00, 0.00, -36083.85, 0.00, 0.00, 0.00, 0.00, 0.000, 0.000, 0.000, 14:04:25.933, 1541747065933
177, 0.00, 0.00, 0.00, -3578.56, 0.00, 0.00, 0.00, 0.00, 0.000, 0.000, 0.000, 14:04:25.933, 1541747065933
178, 0.00, 0.00, 0.00, 21427.19, 0.00, 0.00, 0.00, 0.00, -0.024, 0.336, 0.948, 14:04:25.933, 1541747065933
179, 0.00, 0.00, 0.00, 753.43, 0.00, 0.00, 0.00, 0.00, 0.000, 0.000, 0.000, 14:04:25.933, 1541747065933
180, 0.00, 0.00, 0.00, -37369.48, 0.00, 0.00, 0.00, 0.00, 0.000, 0.000, 0.000, 14:04:25.933, 1541747065933
181, 0.00, 0.00, 0.00, -36318.03, 0.00, 0.00, 0.00, 0.00, 0.000, 0.000, 0.000, 14:04:25.934, 1541747065934
182, 0.00, 0.00, 0.00, -3894.55, 0.00, 0.00, 0.00, 0.00, 0.000, 0.000, 0.000, 14:04:25.934, 1541747065934
183, 0.00, 0.00, 0.00, 21397.62, 0.00, 0.00, 0.00, 0.00, 0.000, 0.000, 0.000, 14:04:25.934, 1541747065934
184, 0.00, 0.00, 0.00, 1087.19, 0.00, 0.00, 0.00, 0.00, 0.000, 0.000, 0.000, 14:04:25.934, 1541747065934
185, 0.00, 0.00, 0.00, -37170.64, 0.00, 0.00, 0.00, 0.00, 0.000, 0.000, 0.000, 14:04:25.934, 1541747065934
186, 0.00, 0.00, 0.00, -36532.92, 0.00, 0.00, 0.00, 0.00, 0.000, 0.000, 0.000, 14:04:25.934, 1541747065934
187, 0.00, 0.00, 0.00, -4201.14, 0.00, 0.00, 0.00, 0.00, 0.000, 0.000, 0.000, 14:04:25.934, 1541747065934
188, 0.00, 0.00, 0.00, 21382.15, 0.00, 0.00, 0.00, 0.00, -0.024, 0.336, 0.950, 14:04:25.934, 1541747065934
189, 0.00, 0.00, 0.00, 1418.04, 0.00, 0.00, 0.00, 0.00, 0.000, 0.000, 0.000, 14:04:25.935, 1541747065935
190, 0.00, 0.00, 0.00, -37018.49, 0.00, 0.00, 0.00, 0.00, 0.000, 0.000, 0.000, 14:04:25.935, 1541747065935
191, 0.00, 0.00, 0.00, -36666.71, 0.00, 0.00, 0.00, 0.00, 0.000, 0.000, 0.000, 14:04:25.935, 1541747065935
192, 0.00, 0.00, 0.00, -4460.00, 0.00, 0.00, 0.00, 0.00, 0.000, 0.000, 0.000, 14:04:25.935, 1541747065935
193, 0.00, 0.00, 0.00, 21303.25, 0.00, 0.00, 0.00, 0.00, 0.000, 0.000, 0.000, 14:04:25.935, 1541747065935
194, 0.00, 0.00, 0.00, 1716.86, 0.00, 0.00, 0.00, 0.00, 0.000, 0.000, 0.000, 14:04:25.935, 1541747065935
195, 0.00, 0.00, 0.00, -36832.25, 0.00, 0.00, 0.00, 0.00, 0.000, 0.000, 0.000, 14:04:25.935, 1541747065935
196, 0.00, 0.00, 0.00, -36889.86, 0.00, 0.00, 0.00, 0.00, 0.000, 0.000, 0.000, 14:04:25.935, 1541747065935
197, 0.00, 0.00, 0.00, -4816.96, 0.00, 0.00, 0.00, 0.00, 0.000, 0.000, 0.000, 14:04:25.935, 1541747065935
198, 0.00, 0.00, 0.00, 21185.79, 0.00, 0.00, 0.00, 0.00, -0.026, 0.340, 0.954, 14:04:25.935, 1541747065935
199, 0.00, 0.00, 0.00, 2174.20, 0.00, 0.00, 0.00, 0.00, 0.000, 0.000, 0.000, 14:04:25.935, 1541747065935
200, 0.00, 0.00, 0.00, -36525.25, 0.00, 0.00, 0.00, 0.00, 0.000, 0.000, 0.000, 14:04:25.935, 1541747065935
201, 0.00, 0.00, 0.00, -37004.34, 0.00, 0.00, 0.00, 0.00, 0.000, 0.000, 0.000, 14:04:25.935, 1541747065935
202, 0.00, 0.00, 0.00, -5160.64, 0.00, 0.00, 0.00, 0.00, 0.000, 0.000, 0.000, 14:04:25.935, 1541747065935
203, 0.00, 0.00, 0.00, 21118.04, 0.00, 0.00, 0.00, 0.00, 0.000, 0.000, 0.000, 14:04:25.936, 1541747065936
204, 0.00, 0.00, 0.00, 2489.34, 0.00, 0.00, 0.00, 0.00, 0.000, 0.000, 0.000, 14:04:25.936, 1541747065936
205, 0.00, 0.00, 0.00, -36372.19, 0.00, 0.00, 0.00, 0.00, 0.000, 0.000, 0.000, 14:04:25.936, 1541747065936
206, 0.00, 0.00, 0.00, -37258.03, 0.00, 0.00, 0.00, 0.00, 0.000, 0.000, 0.000, 14:04:25.936, 1541747065936
207, 0.00, 0.00, 0.00, -5515.27, 0.00, 0.00, 0.00, 0.00, 0.000, 0.000, 0.000, 14:04:25.936, 1541747065936
208, 0.00, 0.00, 0.00, 21054.67, 0.00, 0.00, 0.00, 0.00, -0.026, 0.334, 0.952, 14:04:25.936, 1541747065936
209, 0.00, 0.00, 0.00, 2865.63, 0.00, 0.00, 0.00, 0.00, 0.000, 0.000, 0.000, 14:04:26.409, 1541747066409
210, 0.00, 0.00, 0.00, -36147.62, 0.00, 0.00, 0.00, 0.00, 0.000, 0.000, 0.000, 14:04:26.409, 1541747066409
211, 0.00, 0.00, 0.00, -37419.46, 0.00, 0.00, 0.00, 0.00, 0.000, 0.000, 0.000, 14:04:26.409, 1541747066409
212, 0.00, 0.00, 0.00, -5770.48, 0.00, 0.00, 0.00, 0.00, 0.000, 0.000, 0.000, 14:04:26.409, 1541747066409
213, 0.00, 0.00, 0.00, 21026.35, 0.00, 0.00, 0.00, 0.00, 0.000, 0.000, 0.000, 14:04:26.409, 1541747066409
214, 0.00, 0.00, 0.00, 3086.46, 0.00, 0.00, 0.00, 0.00, 0.000, 0.000, 0.000, 14:04:26.409, 1541747066409
215, 0.00, 0.00, 0.00, -35997.24, 0.00, 0.00, 0.00, 0.00, 0.000, 0.000, 0.000, 14:04:26.409, 1541747066409
216, 0.00, 0.00, 0.00, -37620.69, 0.00, 0.00, 0.00, 0.00, 0.000, 0.000, 0.000, 14:04:26.409, 1541747066409
217, 0.00, 0.00, 0.00, -6077.01, 0.00, 0.00, 0.00, 0.00, 0.000, 0.000, 0.000, 14:04:26.409, 1541747066409
218, 0.00, 0.00, 0.00, 20952.95, 0.00, 0.00, 0.00, 0.00, -0.024, 0.340, 0.954, 14:04:26.409, 1541747066409
219, 0.00, 0.00, 0.00, 3508.58, 0.00, 0.00, 0.00, 0.00, 0.000, 0.000, 0.000, 14:04:26.409, 1541747066409
220, 0.00, 0.00, 0.00, -35704.95, 0.00, 0.00, 0.00, 0.00, 0.000, 0.000, 0.000, 14:04:26.409, 1541747066409
221, 0.00, 0.00, 0.00, -37801.13, 0.00, 0.00, 0.00, 0.00, 0.000, 0.000, 0.000, 14:04:26.409, 1541747066409
222, 0.00, 0.00, 0.00, -6465.82, 0.00, 0.00, 0.00, 0.00, 0.000, 0.000, 0.000, 14:04:26.409, 1541747066409
223, 0.00, 0.00, 0.00, 20790.45, 0.00, 0.00, 0.00, 0.00, 0.000, 0.000, 0.000, 14:04:26.409, 1541747066409
224, 0.00, 0.00, 0.00, 3863.14, 0.00, 0.00, 0.00, 0.00, 0.000, 0.000, 0.000, 14:04:26.409, 1541747066409
225, 0.00, 0.00, 0.00, -35500.05, 0.00, 0.00, 0.00, 0.00, 0.000, 0.000, 0.000, 14:04:26.409, 1541747066409
226, 0.00, 0.00, 0.00, -37934.80, 0.00, 0.00, 0.00, 0.00, 0.000, 0.000, 0.000, 14:04:26.409, 1541747066409
227, 0.00, 0.00, 0.00, -6732.88, 0.00, 0.00, 0.00, 0.00, 0.000, 0.000, 0.000, 14:04:26.410, 1541747066410
228, 0.00, 0.00, 0.00, 20739.49, 0.00, 0.00, 0.00, 0.00, -0.024, 0.342, 0.954, 14:04:26.410, 1541747066410
229, 0.00, 0.00, 0.00, 4187.08, 0.00, 0.00, 0.00, 0.00, 0.000, 0.000, 0.000, 14:04:26.410, 1541747066410
230, 0.00, 0.00, 0.00, -35232.36, 0.00, 0.00, 0.00, 0.00, 0.000, 0.000, 0.000, 14:04:26.410, 1541747066410
231, 0.00, 0.00, 0.00, -38123.43, 0.00, 0.00, 0.00, 0.00, 0.000, 0.000, 0.000, 14:04:26.410, 1541747066410
232, 0.00, 0.00, 0.00, -7076.47, 0.00, 0.00, 0.00, 0.00, 0.000, 0.000, 0.000, 14:04:26.410, 1541747066410
233, 0.00, 0.00, 0.00, 20681.33, 0.00, 0.00, 0.00, 0.00, 0.000, 0.000, 0.000, 14:04:26.410, 1541747066410
234, 0.00, 0.00, 0.00, 4564.09, 0.00, 0.00, 0.00, 0.00, 0.000, 0.000, 0.000, 14:04:26.410, 1541747066410
235, 0.00, 0.00, 0.00, -35090.81, 0.00, 0.00, 0.00, 0.00, 0.000, 0.000, 0.000, 14:04:26.410, 1541747066410
236, 0.00, 0.00, 0.00, -38344.82, 0.00, 0.00, 0.00, 0.00, 0.000, 0.000, 0.000, 14:04:26.410, 1541747066410
237, 0.00, 0.00, 0.00, -7382.24, 0.00, 0.00, 0.00, 0.00, 0.000, 0.000, 0.000, 14:04:26.410, 1541747066410
238, 0.00, 0.00, 0.00, 20595.05, 0.00, 0.00, 0.00, 0.00, 0.000, 0.000, 0.000, 14:04:26.410, 1541747066410
239, 0.00, 0.00, 0.00, 4857.15, 0.00, 0.00, 0.00, 0.00, -0.028, 0.344, 0.956, 14:04:26.410, 1541747066410
240, 0.00, 0.00, 0.00, -34877.23, 0.00, 0.00, 0.00, 0.00, 0.000, 0.000, 0.000, 14:04:26.410, 1541747066410
241, 0.00, 0.00, 0.00, -38480.67, 0.00, 0.00, 0.00, 0.00, 0.000, 0.000, 0.000, 14:04:26.410, 1541747066410
242, 0.00, 0.00, 0.00, -7658.36, 0.00, 0.00, 0.00, 0.00, 0.000, 0.000, 0.000, 14:04:26.410, 1541747066410
243, 0.00, 0.00, 0.00, 20525.34, 0.00, 0.00, 0.00, 0.00, 0.000, 0.000, 0.000, 14:04:26.410, 1541747066410
244, 0.00, 0.00, 0.00, 5123.47, 0.00, 0.00, 0.00, 0.00, 0.000, 0.000, 0.000, 14:04:26.410, 1541747066410
245, 0.00, 0.00, 0.00, -34626.45, 0.00, 0.00, 0.00, 0.00, 0.000, 0.000, 0.000, 14:04:26.410, 1541747066410
246, 0.00, 0.00, 0.00, -38660.40, 0.00, 0.00, 0.00, 0.00, 0.000, 0.000, 0.000, 14:04:26.410, 1541747066410
247, 0.00, 0.00, 0.00, -7984.98, 0.00, 0.00, 0.00, 0.00, 0.000, 0.000, 0.000, 14:04:26.411, 1541747066411
248, 0.00, 0.00, 0.00, 20371.67, 0.00, 0.00, 0.00, 0.00, 0.000, 0.000, 0.000, 14:04:26.411, 1541747066411
249, 0.00, 0.00, 0.00, 5564.44, 0.00, 0.00, 0.00, 0.00, -0.036, 0.340, 0.950, 14:04:26.411, 1541747066411
250, 0.00, 0.00, 0.00, -34331.36, 0.00, 0.00, 0.00, 0.00, 0.000, 0.000, 0.000, 14:04:26.411, 1541747066411
251, 0.00, 0.00, 0.00, -38784.23, 0.00, 0.00, 0.00, 0.00, 0.000, 0.000, 0.000, 14:04:26.411, 1541747066411
252, 0.00, 0.00, 0.00, -8324.48, 0.00, 0.00, 0.00, 0.00, 0.000, 0.000, 0.000, 14:04:26.411, 1541747066411
253, 0.00, 0.00, 0.00, 20254.90, 0.00, 0.00, 0.00, 0.00, 0.000, 0.000, 0.000, 14:04:26.411, 1541747066411
254, 0.00, 0.00, 0.00, 5794.13, 0.00, 0.00, 0.00, 0.00, 0.000, 0.000, 0.000, 14:04:26.411, 1541747066411
255, 0.00, 0.00, 0.00, -34096.71, 0.00, 0.00, 0.00, 0.00, 0.000, 0.000, 0.000, 14:04:26.411, 1541747066411
0, 0.00, 0.00, 0.00, -38984.66, 0.00, 0.00, 0.00, 0.00, 0.000, 0.000, 0.000, 14:04:26.411, 1541747066411
1, 0.00, 0.00, 0.00, -8664.68, 0.00, 0.00, 0.00, 0.00, 0.000, 0.000, 0.000, 14:04:26.411, 1541747066411
2, 0.00, 0.00, 0.00, 20207.99, 0.00, 0.00, 0.00, 0.00, 0.000, 0.000, 0.000, 14:04:26.411, 1541747066411
3, 0.00, 0.00, 0.00, 6273.58, 0.00, 0.00, 0.00, 0.00, -0.030, 0.344, 0.954, 14:04:26.411, 1541747066411
4, 0.00, 0.00, 0.00, -33795.14, 0.00, 0.00, 0.00, 0.00, 0.000, 0.000, 0.000, 14:04:26.411, 1541747066411
5, 0.00, 0.00, 0.00, -39105.67, 0.00, 0.00, 0.00, 0.00, 0.000, 0.000, 0.000, 14:04:26.411, 1541747066411
6, 0.00, 0.00, 0.00, -8970.51, 0.00, 0.00, 0.00, 0.00, 0.000, 0.000, 0.000, 14:04:26.411, 1541747066411
7, 0.00, 0.00, 0.00, 20124.88, 0.00, 0.00, 0.00, 0.00, 0.000, 0.000, 0.000, 14:04:26.411, 1541747066411
8, 0.00, 0.00, 0.00, 6482.03, 0.00, 0.00, 0.00, 0.00, 0.000, 0.000, 0.000, 14:04:26.411, 1541747066411
9, 0.00, 0.00, 0.00, -33620.91, 0.00, 0.00, 0.00, 0.00, 0.000, 0.000, 0.000, 14:04:26.411, 1541747066411
10, 0.00, 0.00, 0.00, -39299.64, 0.00, 0.00, 0.00, 0.00, 0.000, 0.000, 0.000, 14:04:26.411, 1541747066411
11, 0.00, 0.00, 0.00, -9274.34, 0.00, 0.00, 0.00, 0.00, 0.000, 0.000, 0.000, 14:04:26.411, 1541747066411
12, 0.00, 0.00, 0.00, 20035.61, 0.00, 0.00, 0.00, 0.00, 0.000, 0.000, 0.000, 14:04:26.411, 1541747066411
13, 0.00, 0.00, 0.00, 6821.44, 0.00, 0.00, 0.00, 0.00, -0.032, 0.344, 0.952, 14:04:26.411, 1541747066411
14, 0.00, 0.00, 0.00, -33342.90, 0.00, 0.00, 0.00, 0.00, 0.000, 0.000, 0.000, 14:04:26.411, 1541747066411
15, 0.00, 0.00, 0.00, -39480.91, 0.00, 0.00, 0.00, 0.00, 0.000, 0.000, 0.000, 14:04:26.412, 1541747066412
16, 0.00, 0.00, 0.00, -9572.60, 0.00, 0.00, 0.00, 0.00, 0.000, 0.000, 0.000, 14:04:26.412, 1541747066412
17, 0.00, 0.00, 0.00, 19893.70, 0.00, 0.00, 0.00, 0.00, 0.000, 0.000, 0.000, 14:04:26.412, 1541747066412
18, 0.00, 0.00, 0.00, 7103.27, 0.00, 0.00, 0.00, 0.00, 0.000, 0.000, 0.000, 14:04:26.412, 1541747066412
19, 0.00, 0.00, 0.00, -33121.62, 0.00, 0.00, 0.00, 0.00, 0.000, 0.000, 0.000, 14:04:26.412, 1541747066412
20, 0.00, 0.00, 0.00, -39680.76, 0.00, 0.00, 0.00, 0.00, 0.000, 0.000, 0.000, 14:04:26.412, 1541747066412
21, 0.00, 0.00, 0.00, -9940.47, 0.00, 0.00, 0.00, 0.00, 0.000, 0.000, 0.000, 14:04:26.412, 1541747066412
22, 0.00, 0.00, 0.00, 19780.67, 0.00, 0.00, 0.00, 0.00, 0.000, 0.000, 0.000, 14:04:26.412, 1541747066412
23, 0.00, 0.00, 0.00, 7452.27, 0.00, 0.00, 0.00, 0.00, -0.028, 0.336, 0.948, 14:04:26.412, 1541747066412
24, 0.00, 0.00, 0.00, -32856.30, 0.00, 0.00, 0.00, 0.00, 0.000, 0.000, 0.000, 14:04:26.412, 1541747066412
25, 0.00, 0.00, 0.00, -39803.34, 0.00, 0.00, 0.00, 0.00, 0.000, 0.000, 0.000, 14:04:26.412, 1541747066412
26, 0.00, 0.00, 0.00, -10300.31, 0.00, 0.00, 0.00, 0.00, 0.000, 0.000, 0.000, 14:04:26.412, 1541747066412
27, 0.00, 0.00, 0.00, 19600.42, 0.00, 0.00, 0.00, 0.00, 0.000, 0.000, 0.000, 14:04:26.412, 1541747066412
28, 0.00, 0.00, 0.00, 7832.94, 0.00, 0.00, 0.00, 0.00, 0.000, 0.000, 0.000, 14:04:26.412, 1541747066412
29, 0.00, 0.00, 0.00, -32518.17, 0.00, 0.00, 0.00, 0.00, 0.000, 0.000, 0.000, 14:04:26.412, 1541747066412
30, 0.00, 0.00, 0.00, -39866.05, 0.00, 0.00, 0.00, 0.00, 0.000, 0.000, 0.000, 14:04:26.412, 1541747066412
31, 0.00, 0.00, 0.00, -10606.37, 0.00, 0.00, 0.00, 0.00, 0.000, 0.000, 0.000, 14:04:26.412, 1541747066412
32, 0.00, 0.00, 0.00, 19410.95, 0.00, 0.00, 0.00, 0.00, 0.000, 0.000, 0.000, 14:04:26.412, 1541747066412
33, 0.00, 0.00, 0.00, 8131.97, 0.00, 0.00, 0.00, 0.00, -0.028, 0.336, 0.948, 14:04:26.412, 1541747066412
34, 0.00, 0.00, 0.00, -32229.02, 0.00, 0.00, 0.00, 0.00, 0.000, 0.000, 0.000, 14:04:26.413, 1541747066413
35, 0.00, 0.00, 0.00, -40038.05, 0.00, 0.00, 0.00, 0.00, 0.000, 0.000, 0.000, 14:04:26.413, 1541747066413
36, 0.00, 0.00, 0.00, -10958.57, 0.00, 0.00, 0.00, 0.00, 0.000, 0.000, 0.000, 14:04:26.413, 1541747066413
37, 0.00, 0.00, 0.00, 19290.09, 0.00, 0.00, 0.00, 0.00, 0.000, 0.000, 0.000, 14:04:26.413, 1541747066413
38, 0.00, 0.00, 0.00, 8464.90, 0.00, 0.00, 0.00, 0.00, 0.000, 0.000, 0.000, 14:04:26.413, 1541747066413
39, 0.00, 0.00, 0.00, -31954.77, 0.00, 0.00, 0.00, 0.00, 0.000, 0.000, 0.000, 14:04:26.413, 1541747066413
40, 0.00, 0.00, 0.00, -40202.32, 0.00, 0.00, 0.00, 0.00, 0.000, 0.000, 0.000, 14:04:26.413, 1541747066413
41, 0.00, 0.00, 0.00, -11289.73, 0.00, 0.00, 0.00, 0.00, 0.000, 0.000, 0.000, 14:04:26.413, 1541747066413
42, 0.00, 0.00, 0.00, 19141.74, 0.00, 0.00, 0.00, 0.00, 0.000, 0.000, 0.000, 14:04:26.413, 1541747066413
43, 0.00, 0.00, 0.00, 8867.61, 0.00, 0.00, 0.00, 0.00, -0.028, 0.338, 0.950, 14:04:26.413, 1541747066413
44, 0.00, 0.00, 0.00, -31556.88, 0.00, 0.00, 0.00, 0.00, 0.000, 0.000, 0.000, 14:04:26.413, 1541747066413
45, 0.00, 0.00, 0.00, -40122.83, 0.00, 0.00, 0.00, 0.00, 0.000, 0.000, 0.000, 14:04:26.413, 1541747066413
46, 0.00, 0.00, 0.00, -11442.93, 0.00, 0.00, 0.00, 0.00, 0.000, 0.000, 0.000, 14:04:26.413, 1541747066413
47, 0.00, 0.00, 0.00, 19121.43, 0.00, 0.00, 0.00, 0.00, 0.000, 0.000, 0.000, 14:04:26.413, 1541747066413
48, 0.00, 0.00, 0.00, 9245.26, 0.00, 0.00, 0.00, 0.00, 0.000, 0.000, 0.000, 14:04:26.413, 1541747066413
49, 0.00, 0.00, 0.00, -31153.84, 0.00, 0.00, 0.00, 0.00, 0.000, 0.000, 0.000, 14:04:26.413, 1541747066413
50, 0.00, 0.00, 0.00, -40194.05, 0.00, 0.00, 0.00, 0.00, 0.000, 0.000, 0.000, 14:04:26.413, 1541747066413
51, 0.00, 0.00, 0.00, -11755.36, 0.00, 0.00, 0.00, 0.00, 0.000, 0.000, 0.000, 14:04:26.413, 1541747066413
52, 0.00, 0.00, 0.00, 19045.36, 0.00, 0.00, 0.00, 0.00, 0.000, 0.000, 0.000, 14:04:26.413, 1541747066413
53, 0.00, 0.00, 0.00, 9572.89, 0.00, 0.00, 0.00, 0.00, -0.032, 0.338, 0.946, 14:04:26.413, 1541747066413
54, 0.00, 0.00, 0.00, -30976.25, 0.00, 0.00, 0.00, 0.00, 0.000, 0.000, 0.000, 14:04:26.413, 1541747066413
55, 0.00, 0.00, 0.00, -40514.03, 0.00, 0.00, 0.00, 0.00, 0.000, 0.000, 0.000, 14:04:26.413, 1541747066413
56, 0.00, 0.00, 0.00, -12321.35, 0.00, 0.00, 0.00, 0.00, 0.000, 0.000, 0.000, 14:04:26.413, 1541747066413
57, 0.00, 0.00, 0.00, 18587.69, 0.00, 0.00, 0.00, 0.00, 0.000, 0.000, 0.000, 14:04:26.413, 1541747066413
58, 0.00, 0.00, 0.00, 9644.80, 0.00, 0.00, 0.00, 0.00, 0.000, 0.000, 0.000, 14:04:26.413, 1541747066413
59, 0.00, 0.00, 0.00, -30811.37, 0.00, 0.00, 0.00, 0.00, 0.000, 0.000, 0.000, 14:04:26.414, 1541747066414
60, 0.00, 0.00, 0.00, -40627.40, 0.00, 0.00, 0.00, 0.00, 0.000, 0.000, 0.000, 14:04:26.414, 1541747066414
61, 0.00, 0.00, 0.00, -12592.01, 0.00, 0.00, 0.00, 0.00, 0.000, 0.000, 0.000, 14:04:26.414, 1541747066414
62, 0.00, 0.00, 0.00, 18534.76, 0.00, 0.00, 0.00, 0.00, 0.000, 0.000, 0.000, 14:04:26.414, 1541747066414
63, 0.00, 0.00, 0.00, 10053.08, 0.00, 0.00, 0.00, 0.00, 0.000, 0.000, 0.000, 14:04:26.414, 1541747066414
64, 0.00, 0.00, 0.00, -30418.35, 0.00, 0.00, 0.00, 0.00, -0.032, 0.342, 0.948, 14:04:26.414, 1541747066414
65, 0.00, 0.00, 0.00, -40671.66, 0.00, 0.00, 0.00, 0.00, 0.000, 0.000, 0.000, 14:04:26.414, 1541747066414
66, 0.00, 0.00, 0.00, -12835.22, 0.00, 0.00, 0.00, 0.00, 0.000, 0.000, 0.000, 14:04:26.414, 1541747066414
67, 0.00, 0.00, 0.00, 18300.74, 0.00, 0.00, 0.00, 0.00, 0.000, 0.000, 0.000, 14:04:26.414, 1541747066414
68, 0.00, 0.00, 0.00, 10332.18, 0.00, 0.00, 0.00, 0.00, 0.000, 0.000, 0.000, 14:04:26.414, 1541747066414
69, 0.00, 0.00, 0.00, -30098.50, 0.00, 0.00, 0.00, 0.00, 0.000, 0.000, 0.000, 14:04:26.414, 1541747066414
70, 0.00, 0.00, 0.00, -40680.24, 0.00, 0.00, 0.00, 0.00, 0.000, 0.000, 0.000, 14:04:26.414, 1541747066414
71, 0.00, 0.00, 0.00, -13168.33, 0.00, 0.00, 0.00, 0.00, 0.000, 0.000, 0.000, 14:04:26.414, 1541747066414
72, 0.00, 0.00, 0.00, 18149.35, 0.00, 0.00, 0.00, 0.00, 0.000, 0.000, 0.000, 14:04:26.414, 1541747066414
73, 0.00, 0.00, 0.00, 10628.95, 0.00, 0.00, 0.00, 0.00, 0.000, 0.000, 0.000, 14:04:26.915, 1541747066915
74, 0.00, 0.00, 0.00, -29789.31, 0.00, 0.00, 0.00, 0.00, -0.030, 0.340, 0.948, 14:04:26.915, 1541747066915
75, 0.00, 0.00, 0.00, -40851.37, 0.00, 0.00, 0.00, 0.00, 0.000, 0.000, 0.000, 14:04:26.916, 1541747066916
76, 0.00, 0.00, 0.00, -13495.67, 0.00, 0.00, 0.00, 0.00, 0.000, 0.000, 0.000, 14:04:26.916, 1541747066916
77, 0.00, 0.00, 0.00, 18061.84, 0.00, 0.00, 0.00, 0.00, 0.000, 0.000, 0.000, 14:04:26.916, 1541747066916
78, 0.00, 0.00, 0.00, 10938.97, 0.00, 0.00, 0.00, 0.00, 0.000, 0.000, 0.000, 14:04:26.916, 1541747066916
79, 0.00, 0.00, 0.00, -29479.07, 0.00, 0.00, 0.00, 0.00, 0.000, 0.000, 0.000, 14:04:26.917, 1541747066917
80, 0.00, 0.00, 0.00, -40972.78, 0.00, 0.00, 0.00, 0.00, 0.000, 0.000, 0.000, 14:04:26.917, 1541747066917
81, 0.00, 0.00, 0.00, -13806.72, 0.00, 0.00, 0.00, 0.00, 0.000, 0.000, 0.000, 14:04:26.917, 1541747066917
82, 0.00, 0.00, 0.00, 17838.55, 0.00, 0.00, 0.00, 0.00, 0.000, 0.000, 0.000, 14:04:26.917, 1541747066917
83, 0.00, 0.00, 0.00, 11177.12, 0.00, 0.00, 0.00, 0.00, 0.000, 0.000, 0.000, 14:04:26.917, 1541747066917
84, 0.00, 0.00, 0.00, -29215.94, 0.00, 0.00, 0.00, 0.00, -0.028, 0.338, 0.948, 14:04:26.917, 1541747066917
85, 0.00, 0.00, 0.00, -41036.50, 0.00, 0.00, 0.00, 0.00, 0.000, 0.000, 0.000, 14:04:26.917, 1541747066917
86, 0.00, 0.00, 0.00, -14087.32, 0.00, 0.00, 0.00, 0.00, 0.000, 0.000, 0.000, 14:04:26.917, 1541747066917
87, 0.00, 0.00, 0.00, 17763.80, 0.00, 0.00, 0.00, 0.00, 0.000, 0.000, 0.000, 14:04:26.917, 1541747066917
88, 0.00, 0.00, 0.00, 11503.84, 0.00, 0.00, 0.00, 0.00, 0.000, 0.000, 0.000, 14:04:26.918, 1541747066918
89, 0.00, 0.00, 0.00, -28872.11, 0.00, 0.00, 0.00, 0.00, 0.000, 0.000, 0.000, 14:04:26.918, 1541747066918
90, 0.00, 0.00, 0.00, -41159.06, 0.00, 0.00, 0.00, 0.00, 0.000, 0.000, 0.000, 14:04:26.918, 1541747066918
91, 0.00, 0.00, 0.00, -14415.33, 0.00, 0.00, 0.00, 0.00, 0.000, 0.000, 0.000, 14:04:26.918, 1541747066918
92, 0.00, 0.00, 0.00, 17530.00, 0.00, 0.00, 0.00, 0.00, 0.000, 0.000, 0.000, 14:04:26.918, 1541747066918
93, 0.00, 0.00, 0.00, 11792.31, 0.00, 0.00, 0.00, 0.00, 0.000, 0.000, 0.000, 14:04:26.918, 1541747066918
94, 0.00, 0.00, 0.00, -28559.20, 0.00, 0.00, 0.00, 0.00, -0.030, 0.340, 0.954, 14:04:26.918, 1541747066918
95, 0.00, 0.00, 0.00, -41214.36, 0.00, 0.00, 0.00, 0.00, 0.000, 0.000, 0.000, 14:04:26.921, 1541747066921
96, 0.00, 0.00, 0.00, -14668.04, 0.00, 0.00, 0.00, 0.00, 0.000, 0.000, 0.000, 14:04:26.921, 1541747066921
97, 0.00, 0.00, 0.00, 17417.91, 0.00, 0.00, 0.00, 0.00, 0.000, 0.000, 0.000, 14:04:26.921, 1541747066921
98, 0.00, 0.00, 0.00, 12067.95, 0.00, 0.00, 0.00, 0.00, 0.000, 0.000, 0.000, 14:04:26.921, 1541747066921
99, 0.00, 0.00, 0.00, -28218.50, 0.00, 0.00, 0.00, 0.00, 0.000, 0.000, 0.000, 14:04:26.921, 1541747066921
100, 0.00, 0.00, 0.00, -41347.37, 0.00, 0.00, 0.00, 0.00, 0.000, 0.000, 0.000, 14:04:26.921, 1541747066921
101, 0.00, 0.00, 0.00, -14999.52, 0.00, 0.00, 0.00, 0.00, 0.000, 0.000, 0.000, 14:04:26.921, 1541747066921
102, 0.00, 0.00, 0.00, 17291.62, 0.00, 0.00, 0.00, 0.00, 0.000, 0.000, 0.000, 14:04:26.921, 1541747066921
103, 0.00, 0.00, 0.00, 12424.95, 0.00, 0.00, 0.00, 0.00, 0.000, 0.000, 0.000, 14:04:26.921, 1541747066921
104, 0.00, 0.00, 0.00, -27889.28, 0.00, 0.00, 0.00, 0.00, -0.024, 0.334, 0.952, 14:04:26.921, 1541747066921
105, 0.00, 0.00, 0.00, -41433.09, 0.00, 0.00, 0.00, 0.00, 0.000, 0.000, 0.000, 14:04:26.921, 1541747066921
106, 0.00, 0.00, 0.00, -15316.35, 0.00, 0.00, 0.00, 0.00, 0.000, 0.000, 0.000, 14:04:26.922, 1541747066922
107, 0.00, 0.00, 0.00, 17120.70, 0.00, 0.00, 0.00, 0.00, 0.000, 0.000, 0.000, 14:04:26.922, 1541747066922
108, 0.00, 0.00, 0.00, 12667.31, 0.00, 0.00, 0.00, 0.00, 0.000, 0.000, 0.000, 14:04:26.922, 1541747066922
109, 0.00, 0.00, 0.00, -27626.35, 0.00, 0.00, 0.00, 0.00, 0.000, 0.000, 0.000, 14:04:26.922, 1541747066922
110, 0.00, 0.00, 0.00, -41503.03, 0.00, 0.00, 0.00, 0.00, 0.000, 0.000, 0.000, 14:04:26.922, 1541747066922
111, 0.00, 0.00, 0.00, -15589.47, 0.00, 0.00, 0.00, 0.00, 0.000, 0.000, 0.000, 14:04:26.922, 1541747066922
112, 0.00, 0.00, 0.00, 17017.25, 0.00, 0.00, 0.00, 0.00, 0.000, 0.000, 0.000, 14:04:26.922, 1541747066922
113, 0.00, 0.00, 0.00, 12922.19, 0.00, 0.00, 0.00, 0.00, 0.000, 0.000, 0.000, 14:04:26.922, 1541747066922
114, 0.00, 0.00, 0.00, -27333.37, 0.00, 0.00, 0.00, 0.00, -0.028, 0.336, 0.950, 14:04:26.922, 1541747066922
115, 0.00, 0.00, 0.00, -41612.75, 0.00, 0.00, 0.00, 0.00, 0.000, 0.000, 0.000, 14:04:26.922, 1541747066922
116, 0.00, 0.00, 0.00, -15882.52, 0.00, 0.00, 0.00, 0.00, 0.000, 0.000, 0.000, 14:04:26.922, 1541747066922
117, 0.00, 0.00, 0.00, 16776.28, 0.00, 0.00, 0.00, 0.00, 0.000, 0.000, 0.000, 14:04:26.922, 1541747066922
118, 0.00, 0.00, 0.00, 13158.49, 0.00, 0.00, 0.00, 0.00, 0.000, 0.000, 0.000, 14:04:26.922, 1541747066922
119, 0.00, 0.00, 0.00, -26991.14, 0.00, 0.00, 0.00, 0.00, 0.000, 0.000, 0.000, 14:04:26.922, 1541747066922
120, 0.00, 0.00, 0.00, -41678.74, 0.00, 0.00, 0.00, 0.00, 0.000, 0.000, 0.000, 14:04:26.922, 1541747066922
121, 0.00, 0.00, 0.00, -16180.25, 0.00, 0.00, 0.00, 0.00, 0.000, 0.000, 0.000, 14:04:26.922, 1541747066922
122, 0.00, 0.00, 0.00, 16652.29, 0.00, 0.00, 0.00, 0.00, 0.000, 0.000, 0.000, 14:04:26.923, 1541747066923
123, 0.00, 0.00, 0.00, 13381.77, 0.00, 0.00, 0.00, 0.00, 0.000, 0.000, 0.000, 14:04:26.923, 1541747066923
124, 0.00, 0.00, 0.00, -26730.41, 0.00, 0.00, 0.00, 0.00, -0.028, 0.334, 0.948, 14:04:26.923, 1541747066923
125, 0.00, 0.00, 0.00, -41877.49, 0.00, 0.00, 0.00, 0.00, 0.000, 0.000, 0.000, 14:04:26.923, 1541747066923
126, 0.00, 0.00, 0.00, -16636.65, 0.00, 0.00, 0.00, 0.00, 0.000, 0.000, 0.000, 14:04:26.923, 1541747066923
127, 0.00, 0.00, 0.00, 16391.05, 0.00, 0.00, 0.00, 0.00, 0.000, 0.000, 0.000, 14:04:26.923, 1541747066923
128, 0.00, 0.00, 0.00, 13679.80, 0.00, 0.00, 0.00, 0.00, 0.000, 0.000, 0.000, 14:04:26.923, 1541747066923
129, 0.00, 0.00, 0.00, -26444.04, 0.00, 0.00, 0.00, 0.00, 0.000, 0.000, 0.000, 14:04:26.923, 1541747066923
130, 0.00, 0.00, 0.00, -41984.53, 0.00, 0.00, 0.00, 0.00, 0.000, 0.000, 0.000, 14:04:26.923, 1541747066923
131, 0.00, 0.00, 0.00, -16909.25, 0.00, 0.00, 0.00, 0.00, 0.000, 0.000, 0.000, 14:04:26.923, 1541747066923
132, 0.00, 0.00, 0.00, 16176.76, 0.00, 0.00, 0.00, 0.00, 0.000, 0.000, 0.000, 14:04:26.923, 1541747066923
133, 0.00, 0.00, 0.00, 13797.93, 0.00, 0.00, 0.00, 0.00, 0.000, 0.000, 0.000, 14:04:26.938, 1541747066938
134, 0.00, 0.00, 0.00, -26195.55, 0.00, 0.00, 0.00, 0.00, 0.000, 0.000, 0.000, 14:04:26.938, 1541747066938
135, 0.00, 0.00, 0.00, -42108.47, 0.00, 0.00, 0.00, 0.00, -0.024, 0.338, 0.948, 14:04:26.938, 1541747066938
136, 0.00, 0.00, 0.00, -17268.22, 0.00, 0.00, 0.00, 0.00, 0.000, 0.000, 0.000, 14:04:26.938, 1541747066938
137, 0.00, 0.00, 0.00, 15989.14, 0.00, 0.00, 0.00, 0.00, 0.000, 0.000, 0.000, 14:04:26.938, 1541747066938
138, 0.00, 0.00, 0.00, 14043.69, 0.00, 0.00, 0.00, 0.00, 0.000, 0.000, 0.000, 14:04:26.938, 1541747066938
139, 0.00, 0.00, 0.00, -25858.33, 0.00, 0.00, 0.00, 0.00, 0.000, 0.000, 0.000, 14:04:26.938, 1541747066938
140, 0.00, 0.00, 0.00, -42200.34, 0.00, 0.00, 0.00, 0.00, 0.000, 0.000, 0.000, 14:04:26.938, 1541747066938
141, 0.00, 0.00, 0.00, -17577.61, 0.00, 0.00, 0.00, 0.00, 0.000, 0.000, 0.000, 14:04:26.938, 1541747066938
142, 0.00, 0.00, 0.00, 15726.84, 0.00, 0.00, 0.00, 0.00, 0.000, 0.000, 0.000, 14:04:26.938, 1541747066938
143, 0.00, 0.00, 0.00, 14299.08, 0.00, 0.00, 0.00, 0.00, 0.000, 0.000, 0.000, 14:04:26.938, 1541747066938
144, 0.00, 0.00, 0.00, -25502.65, 0.00, 0.00, 0.00, 0.00, 0.000, 0.000, 0.000, 14:04:26.938, 1541747066938
145, 0.00, 0.00, 0.00, -42238.78, 0.00, 0.00, 0.00, 0.00, -0.024, 0.334, 0.944, 14:04:26.939, 1541747066939
146, 0.00, 0.00, 0.00, -17876.41, 0.00, 0.00, 0.00, 0.00, 0.000, 0.000, 0.000, 14:04:26.939, 1541747066939
147, 0.00, 0.00, 0.00, 15616.90, 0.00, 0.00, 0.00, 0.00, 0.000, 0.000, 0.000, 14:04:26.939, 1541747066939
148, 0.00, 0.00, 0.00, 14555.92, 0.00, 0.00, 0.00, 0.00, 0.000, 0.000, 0.000, 14:04:26.939, 1541747066939
149, 0.00, 0.00, 0.00, -25150.49, 0.00, 0.00, 0.00, 0.00, 0.000, 0.000, 0.000, 14:04:26.939, 1541747066939
150, 0.00, 0.00, 0.00, -42351.08, 0.00, 0.00, 0.00, 0.00, 0.000, 0.000, 0.000, 14:04:26.939, 1541747066939
151, 0.00, 0.00, 0.00, -18306.44, 0.00, 0.00, 0.00, 0.00, 0.000, 0.000, 0.000, 14:04:26.939, 1541747066939
152, 0.00, 0.00, 0.00, 15306.14, 0.00, 0.00, 0.00, 0.00, 0.000, 0.000, 0.000, 14:04:26.939, 1541747066939
153, 0.00, 0.00, 0.00, 14808.10, 0.00, 0.00, 0.00, 0.00, 0.000, 0.000, 0.000, 14:04:26.939, 1541747066939
154, 0.00, 0.00, 0.00, -24796.04, 0.00, 0.00, 0.00, 0.00, 0.000, 0.000, 0.000, 14:04:26.939, 1541747066939
155, 0.00, 0.00, 0.00, -42359.66, 0.00, 0.00, 0.00, 0.00, -0.022, 0.334, 0.944, 14:04:26.939, 1541747066939
156, 0.00, 0.00, 0.00, -18546.72, 0.00, 0.00, 0.00, 0.00, 0.000, 0.000, 0.000, 14:04:26.939, 1541747066939
157, 0.00, 0.00, 0.00, 15124.98, 0.00, 0.00, 0.00, 0.00, 0.000, 0.000, 0.000, 14:04:26.939, 1541747066939
158, 0.00, 0.00, 0.00, 15041.58, 0.00, 0.00, 0.00, 0.00, 0.000, 0.000, 0.000, 14:04:26.939, 1541747066939
159, 0.00, 0.00, 0.00, -24509.87, 0.00, 0.00, 0.00, 0.00, 0.000, 0.000, 0.000, 14:04:26.940, 1541747066940
160, 0.00, 0.00, 0.00, -42409.84, 0.00, 0.00, 0.00, 0.00, 0.000, 0.000, 0.000, 14:04:26.940, 1541747066940
161, 0.00, 0.00, 0.00, -18821.60, 0.00, 0.00, 0.00, 0.00, 0.000, 0.000, 0.000, 14:04:26.940, 1541747066940
162, 0.00, 0.00, 0.00, 14946.63, 0.00, 0.00, 0.00, 0.00, 0.000, 0.000, 0.000, 14:04:26.940, 1541747066940
163, 0.00, 0.00, 0.00, 15268.77, 0.00, 0.00, 0.00, 0.00, 0.000, 0.000, 0.000, 14:04:26.940, 1541747066940
164, 0.00, 0.00, 0.00, -24120.86, 0.00, 0.00, 0.00, 0.00, 0.000, 0.000, 0.000, 14:04:26.940, 1541747066940
165, 0.00, 0.00, 0.00, -42471.71, 0.00, 0.00, 0.00, 0.00, -0.030, 0.330, 0.948, 14:04:26.940, 1541747066940
166, 0.00, 0.00, 0.00, -19115.17, 0.00, 0.00, 0.00, 0.00, 0.000, 0.000, 0.000, 14:04:26.940, 1541747066940
167, 0.00, 0.00, 0.00, 14640.57, 0.00, 0.00, 0.00, 0.00, 0.000, 0.000, 0.000, 14:04:26.941, 1541747066941
168, 0.00, 0.00, 0.00, 15515.80, 0.00, 0.00, 0.00, 0.00, 0.000, 0.000, 0.000, 14:04:26.941, 1541747066941
169, 0.00, 0.00, 0.00, -23708.16, 0.00, 0.00, 0.00, 0.00, 0.000, 0.000, 0.000, 14:04:26.941, 1541747066941
170, 0.00, 0.00, 0.00, -42432.35, 0.00, 0.00, 0.00, 0.00, 0.000, 0.000, 0.000, 14:04:26.941, 1541747066941
171, 0.00, 0.00, 0.00, -19440.25, 0.00, 0.00, 0.00, 0.00, 0.000, 0.000, 0.000, 14:04:26.941, 1541747066941
172, 0.00, 0.00, 0.00, 14427.45, 0.00, 0.00, 0.00, 0.00, 0.000, 0.000, 0.000, 14:04:26.941, 1541747066941
173, 0.00, 0.00, 0.00, 15760.97, 0.00, 0.00, 0.00, 0.00, 0.000, 0.000, 0.000, 14:04:26.941, 1541747066941
174, 0.00, 0.00, 0.00, -23349.66, 0.00, 0.00, 0.00, 0.00, 0.000, 0.000, 0.000, 14:04:26.941, 1541747066941
175, 0.00, 0.00, 0.00, -42495.40, 0.00, 0.00, 0.00, 0.00, -0.026, 0.334, 0.944, 14:04:26.941, 1541747066941
176, 0.00, 0.00, 0.00, -19789.72, 0.00, 0.00, 0.00, 0.00, 0.000, 0.000, 0.000, 14:04:26.941, 1541747066941
177, 0.00, 0.00, 0.00, 14193.94, 0.00, 0.00, 0.00, 0.00, 0.000, 0.000, 0.000, 14:04:26.941, 1541747066941
178, 0.00, 0.00, 0.00, 15967.17, 0.00, 0.00, 0.00, 0.00, 0.000, 0.000, 0.000, 14:04:26.941, 1541747066941
179, 0.00, 0.00, 0.00, -23039.66, 0.00, 0.00, 0.00, 0.00, 0.000, 0.000, 0.000, 14:04:26.941, 1541747066941
180, 0.00, 0.00, 0.00, -42534.41, 0.00, 0.00, 0.00, 0.00, 0.000, 0.000, 0.000, 14:04:26.941, 1541747066941
181, 0.00, 0.00, 0.00, -20064.69, 0.00, 0.00, 0.00, 0.00, 0.000, 0.000, 0.000, 14:04:26.941, 1541747066941
182, 0.00, 0.00, 0.00, 13969.39, 0.00, 0.00, 0.00, 0.00, 0.000, 0.000, 0.000, 14:04:26.942, 1541747066942
183, 0.00, 0.00, 0.00, 16155.55, 0.00, 0.00, 0.00, 0.00, 0.000, 0.000, 0.000, 14:04:26.942, 1541747066942
184, 0.00, 0.00, 0.00, -22724.88, 0.00, 0.00, 0.00, 0.00, 0.000, 0.000, 0.000, 14:04:26.942, 1541747066942
185, 0.00, 0.00, 0.00, -42553.12, 0.00, 0.00, 0.00, 0.00, -0.026, 0.338, 0.944, 14:04:26.942, 1541747066942
186, 0.00, 0.00, 0.00, -20348.22, 0.00, 0.00, 0.00, 0.00, 0.000, 0.000, 0.000, 14:04:26.942, 1541747066942
187, 0.00, 0.00, 0.00, 13741.63, 0.00, 0.00, 0.00, 0.00, 0.000, 0.000, 0.000, 14:04:26.942, 1541747066942
188, 0.00, 0.00, 0.00, 16386.04, 0.00, 0.00, 0.00, 0.00, 0.000, 0.000, 0.000, 14:04:26.942, 1541747066942
189, 0.00, 0.00, 0.00, -22282.88, 0.00, 0.00, 0.00, 0.00, 0.000, 0.000, 0.000, 14:04:26.942, 1541747066942
190, 0.00, 0.00, 0.00, -42525.58, 0.00, 0.00, 0.00, 0.00, 0.000, 0.000, 0.000, 14:04:26.942, 1541747066942
191, 0.00, 0.00, 0.00, -20605.87, 0.00, 0.00, 0.00, 0.00, 0.000, 0.000, 0.000, 14:04:26.942, 1541747066942
192, 0.00, 0.00, 0.00, 13450.32, 0.00, 0.00, 0.00, 0.00, 0.000, 0.000, 0.000, 14:04:26.942, 1541747066942
193, 0.00, 0.00, 0.00, 16538.23, 0.00, 0.00, 0.00, 0.00, 0.000, 0.000, 0.000, 14:04:27.369, 1541747067369
194, 0.00, 0.00, 0.00, -21949.46, 0.00, 0.00, 0.00, 0.00, 0.000, 0.000, 0.000, 14:04:27.369, 1541747067369
195, 0.00, 0.00, 0.00, -42537.65, 0.00, 0.00, 0.00, 0.00, -0.024, 0.340, 0.954, 14:04:27.369, 1541747067369
196, 0.00, 0.00, 0.00, -20886.38, 0.00, 0.00, 0.00, 0.00, 0.000, 0.000, 0.000, 14:04:27.369, 1541747067369
197, 0.00, 0.00, 0.00, 13243.32, 0.00, 0.00, 0.00, 0.00, 0.000, 0.000, 0.000, 14:04:27.369, 1541747067369
198, 0.00, 0.00, 0.00, 16745.12, 0.00, 0.00, 0.00, 0.00, 0.000, 0.000, 0.000, 14:04:27.370, 1541747067370
199, 0.00, 0.00, 0.00, -21585.23, 0.00, 0.00, 0.00, 0.00, 0.000, 0.000, 0.000, 14:04:27.370, 1541747067370
200, 0.00, 0.00, 0.00, -42604.82, 0.00, 0.00, 0.00, 0.00, 0.000, 0.000, 0.000, 14:04:27.370, 1541747067370
201, 0.00, 0.00, 0.00, -21245.15, 0.00, 0.00, 0.00, 0.00, 0.000, 0.000, 0.000, 14:04:27.370, 1541747067370
202, 0.00, 0.00, 0.00, 13004.83, 0.00, 0.00, 0.00, 0.00, 0.000, 0.000, 0.000, 14:04:27.370, 1541747067370
203, 0.00, 0.00, 0.00, 16933.75, 0.00, 0.00, 0.00, 0.00, 0.000, 0.000, 0.000, 14:04:27.370, 1541747067370
204, 0.00, 0.00, 0.00, -21227.29, 0.00, 0.00, 0.00, 0.00, 0.000, 0.000, 0.000, 14:04:27.370, 1541747067370
205, 0.00, 0.00, 0.00, -42601.53, 0.00, 0.00, 0.00, 0.00, -0.020, 0.344, 0.952, 14:04:27.370, 1541747067370
206, 0.00, 0.00, 0.00, -21484.27, 0.00, 0.00, 0.00, 0.00, 0.000, 0.000, 0.000, 14:04:27.370, 1541747067370
207, 0.00, 0.00, 0.00, 12803.84, 0.00, 0.00, 0.00, 0.00, 0.000, 0.000, 0.000, 14:04:27.370, 1541747067370
208, 0.00, 0.00, 0.00, 17114.66, 0.00, 0.00, 0.00, 0.00, 0.000, 0.000, 0.000, 14:04:27.370, 1541747067370
209, 0.00, 0.00, 0.00, -20892.31, 0.00, 0.00, 0.00, 0.00, 0.000, 0.000, 0.000, 14:04:27.370, 1541747067370
210, 0.00, 0.00, 0.00, -42629.96, 0.00, 0.00, 0.00, 0.00, 0.000, 0.000, 0.000, 14:04:27.370, 1541747067370
211, 0.00, 0.00, 0.00, -21826.34, 0.00, 0.00, 0.00, 0.00, 0.000, 0.000, 0.000, 14:04:27.370, 1541747067370
212, 0.00, 0.00, 0.00, 12543.71, 0.00, 0.00, 0.00, 0.00, 0.000, 0.000, 0.000, 14:04:27.370, 1541747067370
213, 0.00, 0.00, 0.00, 17356.82, 0.00, 0.00, 0.00, 0.00, 0.000, 0.000, 0.000, 14:04:27.370, 1541747067370
214, 0.00, 0.00, 0.00, -20480.46, 0.00, 0.00, 0.00, 0.00, 0.000, 0.000, 0.000, 14:04:27.370, 1541747067370
215, 0.00, 0.00, 0.00, -42645.56, 0.00, 0.00, 0.00, 0.00, 0.000, 0.000, 0.000, 14:04:27.370, 1541747067370
216, 0.00, 0.00, 0.00, -22092.93, 0.00, 0.00, 0.00, 0.00, -0.022, 0.340, 0.952, 14:04:27.370, 1541747067370
217, 0.00, 0.00, 0.00, 12320.28, 0.00, 0.00, 0.00, 0.00, 0.000, 0.000, 0.000, 14:04:27.370, 1541747067370
218, 0.00, 0.00, 0.00, 17529.33, 0.00, 0.00, 0.00, 0.00, 0.000, 0.000, 0.000, 14:04:27.370, 1541747067370
219, 0.00, 0.00, 0.00, -20213.40, 0.00, 0.00, 0.00, 0.00, 0.000, 0.000, 0.000, 14:04:27.370, 1541747067370
220, 0.00, 0.00, 0.00, -42699.21, 0.00, 0.00, 0.00, 0.00, 0.000, 0.000, 0.000, 14:04:27.370, 1541747067370
221, 0.00, 0.00, 0.00, -22438.76, 0.00, 0.00, 0.00, 0.00, 0.000, 0.000, 0.000, 14:04:27.370, 1541747067370
222, 0.00, 0.00, 0.00, 12052.80, 0.00, 0.00, 0.00, 0.00, 0.000, 0.000, 0.000, 14:04:27.370, 1541747067370
223, 0.00, 0.00, 0.00, 17743.33, 0.00, 0.00, 0.00, 0.00, 0.000, 0.000, 0.000, 14:04:27.371, 1541747067371
224, 0.00, 0.00, 0.00, -19790.50, 0.00, 0.00, 0.00, 0.00, 0.000, 0.000, 0.000, 14:04:27.371, 1541747067371
225, 0.00, 0.00, 0.00, -42672.36, 0.00, 0.00, 0.00, 0.00, 0.000, 0.000, 0.000, 14:04:27.371, 1541747067371
226, 0.00, 0.00, 0.00, -22657.87, 0.00, 0.00, 0.00, 0.00, -0.026, 0.340, 0.950, 14:04:27.371, 1541747067371
227, 0.00, 0.00, 0.00, 11833.42, 0.00, 0.00, 0.00, 0.00, 0.000, 0.000, 0.000, 14:04:27.371, 1541747067371
228, 0.00, 0.00, 0.00, 17847.15, 0.00, 0.00, 0.00, 0.00, 0.000, 0.000, 0.000, 14:04:27.371, 1541747067371
229, 0.00, 0.00, 0.00, -19529.43, 0.00, 0.00, 0.00, 0.00, 0.000, 0.000, 0.000, 14:04:27.371, 1541747067371
230, 0.00, 0.00, 0.00, -42784.05, 0.00, 0.00, 0.00, 0.00, 0.000, 0.000, 0.000, 14:04:27.371, 1541747067371
231, 0.00, 0.00, 0.00, -22981.66, 0.00, 0.00, 0.00, 0.00, 0.000, 0.000, 0.000, 14:04:27.371, 1541747067371
232, 0.00, 0.00, 0.00, 11675.59, 0.00, 0.00, 0.00, 0.00, 0.000, 0.000, 0.000, 14:04:27.371, 1541747067371
233, 0.00, 0.00, 0.00, 18131.04, 0.00, 0.00, 0.00, 0.00, 0.000, 0.000, 0.000, 14:04:27.371, 1541747067371
234, 0.00, 0.00, 0.00, -19122.95, 0.00, 0.00, 0.00, 0.00, 0.000, 0.000, 0.000, 14:04:27.371, 1541747067371
235, 0.00, 0.00, 0.00, -42778.49, 0.00, 0.00, 0.00, 0.00, 0.000, 0.000, 0.000, 14:04:27.371, 1541747067371
236, 0.00, 0.00, 0.00, -23307.33, 0.00, 0.00, 0.00, 0.00, -0.026, 0.338, 0.950, 14:04:27.371, 1541747067371
237, 0.00, 0.00, 0.00, 11418.37, 0.00, 0.00, 0.00, 0.00, 0.000, 0.000, 0.000, 14:04:27.371, 1541747067371
238, 0.00, 0.00, 0.00, 18263.68, 0.00, 0.00, 0.00, 0.00, 0.000, 0.000, 0.000, 14:04:27.371, 1541747067371
239, 0.00, 0.00, 0.00, -18782.19, 0.00, 0.00, 0.00, 0.00, 0.000, 0.000, 0.000, 14:04:27.371, 1541747067371
240, 0.00, 0.00, 0.00, -42774.20, 0.00, 0.00, 0.00, 0.00, 0.000, 0.000, 0.000, 14:04:27.371, 1541747067371
241, 0.00, 0.00, 0.00, -23519.78, 0.00, 0.00, 0.00, 0.00, 0.000, 0.000, 0.000, 14:04:27.371, 1541747067371
242, 0.00, 0.00, 0.00, 11213.62, 0.00, 0.00, 0.00, 0.00, 0.000, 0.000, 0.000, 14:04:27.371, 1541747067371
243, 0.00, 0.00, 0.00, 18406.68, 0.00, 0.00, 0.00, 0.00, 0.000, 0.000, 0.000, 14:04:27.371, 1541747067371
244, 0.00, 0.00, 0.00, -18491.75, 0.00, 0.00, 0.00, 0.00, 0.000, 0.000, 0.000, 14:04:27.371, 1541747067371
245, 0.00, 0.00, 0.00, -42785.11, 0.00, 0.00, 0.00, 0.00, 0.000, 0.000, 0.000, 14:04:27.371, 1541747067371
246, 0.00, 0.00, 0.00, -23865.22, 0.00, 0.00, 0.00, 0.00, -0.028, 0.344, 0.954, 14:04:27.371, 1541747067371
247, 0.00, 0.00, 0.00, 10887.42, 0.00, 0.00, 0.00, 0.00, 0.000, 0.000, 0.000, 14:04:27.371, 1541747067371
248, 0.00, 0.00, 0.00, 18601.39, 0.00, 0.00, 0.00, 0.00, 0.000, 0.000, 0.000, 14:04:27.373, 1541747067373
249, 0.00, 0.00, 0.00, -18005.92, 0.00, 0.00, 0.00, 0.00, 0.000, 0.000, 0.000, 14:04:27.373, 1541747067373
250, 0.00, 0.00, 0.00, -42679.18, 0.00, 0.00, 0.00, 0.00, 0.000, 0.000, 0.000, 14:04:27.373, 1541747067373
251, 0.00, 0.00, 0.00, -24153.38, 0.00, 0.00, 0.00, 0.00, 0.000, 0.000, 0.000, 14:04:27.373, 1541747067373
252, 0.00, 0.00, 0.00, 10604.43, 0.00, 0.00, 0.00, 0.00, 0.000, 0.000, 0.000, 14:04:27.373, 1541747067373
253, 0.00, 0.00, 0.00, 18721.35, 0.00, 0.00, 0.00, 0.00, 0.000, 0.000, 0.000, 14:04:27.373, 1541747067373
254, 0.00, 0.00, 0.00, -17690.56, 0.00, 0.00, 0.00, 0.00, 0.000, 0.000, 0.000, 14:04:27.373, 1541747067373
255, 0.00, 0.00, 0.00, -42745.61, 0.00, 0.00, 0.00, 0.00, 0.000, 0.000, 0.000, 14:04:27.373, 1541747067373
0, 0.00, 0.00, 0.00, -24479.32, 0.00, 0.00, 0.00, 0.00, -0.024, 0.344, 0.954, 14:04:27.373, 1541747067373
1, 0.00, 0.00, 0.00, 10412.36, 0.00, 0.00, 0.00, 0.00, 0.000, 0.000, 0.000, 14:04:27.373, 1541747067373
2, 0.00, 0.00, 0.00, 18923.46, 0.00, 0.00, 0.00, 0.00, 0.000, 0.000, 0.000, 14:04:27.373, 1541747067373
3, 0.00, 0.00, 0.00, -17272.22, 0.00, 0.00, 0.00, 0.00, 0.000, 0.000, 0.000, 14:04:27.373, 1541747067373
4, 0.00, 0.00, 0.00, -42637.38, 0.00, 0.00, 0.00, 0.00, 0.000, 0.000, 0.000, 14:04:27.373, 1541747067373
5, 0.00, 0.00, 0.00, -24726.77, 0.00, 0.00, 0.00, 0.00, 0.000, 0.000, 0.000, 14:04:27.373, 1541747067373
6, 0.00, 0.00, 0.00, 10131.42, 0.00, 0.00, 0.00, 0.00, 0.000, 0.000, 0.000, 14:04:27.373, 1541747067373
7, 0.00, 0.00, 0.00, 19038.23, 0.00, 0.00, 0.00, 0.00, 0.000, 0.000, 0.000, 14:04:27.373, 1541747067373
8, 0.00, 0.00, 0.00, -16913.54, 0.00, 0.00, 0.00, 0.00, 0.000, 0.000, 0.000, 14:04:27.373, 1541747067373
9, 0.00, 0.00, 0.00, -42601.66, 0.00, 0.00, 0.00, 0.00, 0.000, 0.000, 0.000, 14:04:27.373, 1541747067373
10, 0.00, 0.00, 0.00, -24940.99, 0.00, 0.00, 0.00, 0.00, -0.026, 0.342, 0.950, 14:04:27.373, 1541747067373
11, 0.00, 0.00, 0.00, 9859.87, 0.00, 0.00, 0.00, 0.00, 0.000, 0.000, 0.000, 14:04:27.373, 1541747067373
12, 0.00, 0.00, 0.00, 19150.55, 0.00, 0.00, 0.00, 0.00, 0.000, 0.000, 0.000, 14:04:27.373, 1541747067373
13, 0.00, 0.00, 0.00, -16563.78, 0.00, 0.00, 0.00, 0.00, 0.000, 0.000, 0.000, 14:04:27.373, 1541747067373
14, 0.00, 0.00, 0.00, -42587.49, 0.00, 0.00, 0.00, 0.00, 0.000, 0.000, 0.000, 14:04:27.373, 1541747067373
15, 0.00, 0.00, 0.00, -25316.93, 0.00, 0.00, 0.00, 0.00, 0.000, 0.000, 0.000, 14:04:27.374, 1541747067374
16, 0.00, 0.00, 0.00, 9508.63, 0.00, 0.00, 0.00, 0.00, 0.000, 0.000, 0.000, 14:04:27.374, 1541747067374
17, 0.00, 0.00, 0.00, 19359.94, 0.00, 0.00, 0.00, 0.00, 0.000, 0.000, 0.000, 14:04:27.374, 1541747067374
18, 0.00, 0.00, 0.00, -16093.97, 0.00, 0.00, 0.00, 0.00, 0.000, 0.000, 0.000, 14:04:27.374, 1541747067374
19, 0.00, 0.00, 0.00, -42572.67, 0.00, 0.00, 0.00, 0.00, 0.000, 0.000, 0.000, 14:04:27.374, 1541747067374
20, 0.00, 0.00, 0.00, -25635.19, 0.00, 0.00, 0.00, 0.00, -0.030, 0.340, 0.950, 14:04:27.374, 1541747067374
21, 0.00, 0.00, 0.00, 9208.02, 0.00, 0.00, 0.00, 0.00, 0.000, 0.000, 0.000, 14:04:27.374, 1541747067374
22, 0.00, 0.00, 0.00, 19463.56, 0.00, 0.00, 0.00, 0.00, 0.000, 0.000, 0.000, 14:04:27.374, 1541747067374
23, 0.00, 0.00, 0.00, -15728.63, 0.00, 0.00, 0.00, 0.00, 0.000, 0.000, 0.000, 14:04:27.374, 1541747067374
24, 0.00, 0.00, 0.00, -42542.23, 0.00, 0.00, 0.00, 0.00, 0.000, 0.000, 0.000, 14:04:27.374, 1541747067374
25, 0.00, 0.00, 0.00, -25957.55, 0.00, 0.00, 0.00, 0.00, 0.000, 0.000, 0.000, 14:04:27.374, 1541747067374
26, 0.00, 0.00, 0.00, 8973.15, 0.00, 0.00, 0.00, 0.00, 0.000, 0.000, 0.000, 14:04:27.374, 1541747067374
27, 0.00, 0.00, 0.00, 19672.78, 0.00, 0.00, 0.00, 0.00, 0.000, 0.000, 0.000, 14:04:27.374, 1541747067374
28, 0.00, 0.00, 0.00, -15371.72, 0.00, 0.00, 0.00, 0.00, 0.000, 0.000, 0.000, 14:04:27.374, 1541747067374
29, 0.00, 0.00, 0.00, -42569.54, 0.00, 0.00, 0.00, 0.00, 0.000, 0.000, 0.000, 14:04:27.374, 1541747067374
30, 0.00, 0.00, 0.00, -26216.61, 0.00, 0.00, 0.00, 0.00, 0.000, 0.000, 0.000, 14:04:27.374, 1541747067374
31, 0.00, 0.00, 0.00, 8714.05, 0.00, 0.00, 0.00, 0.00, -0.026, 0.340, 0.950, 14:04:27.374, 1541747067374
32, 0.00, 0.00, 0.00, 19790.14, 0.00, 0.00, 0.00, 0.00, 0.000, 0.000, 0.000, 14:04:27.374, 1541747067374
33, 0.00, 0.00, 0.00, -14919.14, 0.00, 0.00, 0.00, 0.00, 0.000, 0.000, 0.000, 14:04:27.374, 1541747067374
34, 0.00, 0.00, 0.00, -42484.23, 0.00, 0.00, 0.00, 0.00, 0.000, 0.000, 0.000, 14:04:27.374, 1541747067374
35, 0.00, 0.00, 0.00, -26449.96, 0.00, 0.00, 0.00, 0.00, 0.000, 0.000, 0.000, 14:04:27.374, 1541747067374
36, 0.00, 0.00, 0.00, 8504.06, 0.00, 0.00, 0.00, 0.00, 0.000, 0.000, 0.000, 14:04:27.374, 1541747067374
37, 0.00, 0.00, 0.00, 19937.71, 0.00, 0.00, 0.00, 0.00, 0.000, 0.000, 0.000, 14:04:27.374, 1541747067374
38, 0.00, 0.00, 0.00, -14604.70, 0.00, 0.00, 0.00, 0.00, 0.000, 0.000, 0.000, 14:04:27.374, 1541747067374
39, 0.00, 0.00, 0.00, -42381.39, 0.00, 0.00, 0.00, 0.00, 0.000, 0.000, 0.000, 14:04:27.375, 1541747067375
40, 0.00, 0.00, 0.00, -26622.20, 0.00, 0.00, 0.00, 0.00, 0.000, 0.000, 0.000, 14:04:27.375, 1541747067375
41, 0.00, 0.00, 0.00, 8306.98, 0.00, 0.00, 0.00, 0.00, -0.028, 0.340, 0.948, 14:04:27.375, 1541747067375
42, 0.00, 0.00, 0.00, 20193.41, 0.00, 0.00, 0.00, 0.00, 0.000, 0.000, 0.000, 14:04:27.375, 1541747067375
43, 0.00, 0.00, 0.00, -13968.59, 0.00, 0.00, 0.00, 0.00, 0.000, 0.000, 0.000, 14:04:27.375, 1541747067375
44, 0.00, 0.00, 0.00, -42187.06, 0.00, 0.00, 0.00, 0.00, 0.000, 0.000, 0.000, 14:04:27.375, 1541747067375
45, 0.00, 0.00, 0.00, -26833.83, 0.00, 0.00, 0.00, 0.00, 0.000, 0.000, 0.000, 14:04:27.375, 1541747067375
46, 0.00, 0.00, 0.00, 8121.71, 0.00, 0.00, 0.00, 0.00, 0.000, 0.000, 0.000, 14:04:27.375, 1541747067375
47, 0.00, 0.00, 0.00, 20308.62, 0.00, 0.00, 0.00, 0.00, 0.000, 0.000, 0.000, 14:04:27.375, 1541747067375
48, 0.00, 0.00, 0.00, -13814.09, 0.00, 0.00, 0.00, 0.00, 0.000, 0.000, 0.000, 14:04:27.375, 1541747067375
49, 0.00, 0.00, 0.00, -42429.93, 0.00, 0.00, 0.00, 0.00, 0.000, 0.000, 0.000, 14:04:27.375, 1541747067375
50, 0.00, 0.00, 0.00, -27328.00, 0.00, 0.00, 0.00, 0.00, 0.000, 0.000, 0.000, 14:04:27.375, 1541747067375
51, 0.00, 0.00, 0.00, 7632.09, 0.00, 0.00, 0.00, 0.00, -0.024, 0.334, 0.950, 14:04:27.375, 1541747067375
52, 0.00, 0.00, 0.00, 20237.65, 0.00, 0.00, 0.00, 0.00, 0.000, 0.000, 0.000, 14:04:27.375, 1541747067375
53, 0.00, 0.00, 0.00, -13585.03, 0.00, 0.00, 0.00, 0.00, 0.000, 0.000, 0.000, 14:04:27.375, 1541747067375
54, 0.00, 0.00, 0.00, -42440.15, 0.00, 0.00, 0.00, 0.00, 0.000, 0.000, 0.000, 14:04:27.375, 1541747067375
55, 0.00, 0.00, 0.00, -27625.10, 0.00, 0.00, 0.00, 0.00, 0.000, 0.000, 0.000, 14:04:27.375, 1541747067375
56, 0.00, 0.00, 0.00, 7477.98, 0.00, 0.00, 0.00, 0.00, 0.000, 0.000, 0.000, 14:04:27.375, 1541747067375
57, 0.00, 0.00, 0.00, 20448.31, 0.00, 0.00, 0.00, 0.00, 0.000, 0.000, 0.000, 14:04:27.375, 1541747067375
58, 0.00, 0.00, 0.00, -13117.77, 0.00, 0.00, 0.00, 0.00, 0.000, 0.000, 0.000, 14:04:27.853, 1541747067853
59, 0.00, 0.00, 0.00, -42291.33, 0.00, 0.00, 0.00, 0.00, 0.000, 0.000, 0.000, 14:04:27.853, 1541747067853
60, 0.00, 0.00, 0.00, -27771.30, 0.00, 0.00, 0.00, 0.00, 0.000, 0.000, 0.000, 14:04:27.853, 1541747067853
61, 0.00, 0.00, 0.00, 7258.30, 0.00, 0.00, 0.00, 0.00, -0.032, 0.336, 0.956, 14:04:27.853, 1541747067853
62, 0.00, 0.00, 0.00, 20498.70, 0.00, 0.00, 0.00, 0.00, 0.000, 0.000, 0.000, 14:04:27.853, 1541747067853
63, 0.00, 0.00, 0.00, -12824.76, 0.00, 0.00, 0.00, 0.00, 0.000, 0.000, 0.000, 14:04:27.853, 1541747067853
64, 0.00, 0.00, 0.00, -42264.40, 0.00, 0.00, 0.00, 0.00, 0.000, 0.000, 0.000, 14:04:27.853, 1541747067853
65, 0.00, 0.00, 0.00, -28098.20, 0.00, 0.00, 0.00, 0.00, 0.000, 0.000, 0.000, 14:04:27.853, 1541747067853
66, 0.00, 0.00, 0.00, 6919.36, 0.00, 0.00, 0.00, 0.00, 0.000, 0.000, 0.000, 14:04:27.853, 1541747067853
67, 0.00, 0.00, 0.00, 20643.58, 0.00, 0.00, 0.00, 0.00, 0.000, 0.000, 0.000, 14:04:27.853, 1541747067853
68, 0.00, 0.00, 0.00, -12373.34, 0.00, 0.00, 0.00, 0.00, 0.000, 0.000, 0.000, 14:04:27.853, 1541747067853
69, 0.00, 0.00, 0.00, -42132.10, 0.00, 0.00, 0.00, 0.00, 0.000, 0.000, 0.000, 14:04:27.854, 1541747067854
70, 0.00, 0.00, 0.00, -28259.60, 0.00, 0.00, 0.00, 0.00, 0.000, 0.000, 0.000, 14:04:27.854, 1541747067854
71, 0.00, 0.00, 0.00, 6703.91, 0.00, 0.00, 0.00, 0.00, -0.030, 0.336, 0.952, 14:04:27.854, 1541747067854
72, 0.00, 0.00, 0.00, 20722.53, 0.00, 0.00, 0.00, 0.00, 0.000, 0.000, 0.000, 14:04:27.854, 1541747067854
73, 0.00, 0.00, 0.00, -12065.83, 0.00, 0.00, 0.00, 0.00, 0.000, 0.000, 0.000, 14:04:27.854, 1541747067854
74, 0.00, 0.00, 0.00, -42175.62, 0.00, 0.00, 0.00, 0.00, 0.000, 0.000, 0.000, 14:04:27.854, 1541747067854
75, 0.00, 0.00, 0.00, -28563.88, 0.00, 0.00, 0.00, 0.00, 0.000, 0.000, 0.000, 14:04:27.854, 1541747067854
76, 0.00, 0.00, 0.00, 6426.93, 0.00, 0.00, 0.00, 0.00, 0.000, 0.000, 0.000, 14:04:27.854, 1541747067854
77, 0.00, 0.00, 0.00, 20859.90, 0.00, 0.00, 0.00, 0.00, 0.000, 0.000, 0.000, 14:04:27.854, 1541747067854
78, 0.00, 0.00, 0.00, -11617.32, 0.00, 0.00, 0.00, 0.00, 0.000, 0.000, 0.000, 14:04:27.854, 1541747067854
79, 0.00, 0.00, 0.00, -41995.39, 0.00, 0.00, 0.00, 0.00, 0.000, 0.000, 0.000, 14:04:27.854, 1541747067854
80, 0.00, 0.00, 0.00, -28838.80, 0.00, 0.00, 0.00, 0.00, 0.000, 0.000, 0.000, 14:04:27.854, 1541747067854
81, 0.00, 0.00, 0.00, 6133.25, 0.00, 0.00, 0.00, 0.00, -0.030, 0.334, 0.952, 14:04:27.854, 1541747067854
82, 0.00, 0.00, 0.00, 20913.43, 0.00, 0.00, 0.00, 0.00, 0.000, 0.000, 0.000, 14:04:27.854, 1541747067854
83, 0.00, 0.00, 0.00, -11222.01, 0.00, 0.00, 0.00, 0.00, 0.000, 0.000, 0.000, 14:04:27.854, 1541747067854
84, 0.00, 0.00, 0.00, -41881.82, 0.00, 0.00, 0.00, 0.00, 0.000, 0.000, 0.000, 14:04:27.854, 1541747067854
85, 0.00, 0.00, 0.00, -28977.45, 0.00, 0.00, 0.00, 0.00, 0.000, 0.000, 0.000, 14:04:27.854, 1541747067854
86, 0.00, 0.00, 0.00, 5923.77, 0.00, 0.00, 0.00, 0.00, 0.000, 0.000, 0.000, 14:04:27.854, 1541747067854
87, 0.00, 0.00, 0.00, 21031.29, 0.00, 0.00, 0.00, 0.00, 0.000, 0.000, 0.000, 14:04:27.854, 1541747067854
88, 0.00, 0.00, 0.00, -10816.46, 0.00, 0.00, 0.00, 0.00, 0.000, 0.000, 0.000, 14:04:27.854, 1541747067854
89, 0.00, 0.00, 0.00, -41784.13, 0.00, 0.00, 0.00, 0.00, 0.000, 0.000, 0.000, 14:04:27.854, 1541747067854
90, 0.00, 0.00, 0.00, -29291.74, 0.00, 0.00, 0.00, 0.00, 0.000, 0.000, 0.000, 14:04:27.854, 1541747067854
91, 0.00, 0.00, 0.00, 5560.29, 0.00, 0.00, 0.00, 0.00, -0.028, 0.336, 0.948, 14:04:27.854, 1541747067854
92, 0.00, 0.00, 0.00, 21134.36, 0.00, 0.00, 0.00, 0.00, 0.000, 0.000, 0.000, 14:04:27.854, 1541747067854
93, 0.00, 0.00, 0.00, -10380.57, 0.00, 0.00, 0.00, 0.00, 0.000, 0.000, 0.000, 14:04:27.854, 1541747067854
94, 0.00, 0.00, 0.00, -41639.22, 0.00, 0.00, 0.00, 0.00, 0.000, 0.000, 0.000, 14:04:27.855, 1541747067855
